time_s,TP9,AF7,AF8,TP10,is_gap
0.0,17.08984375,-4.39453125,-24.90234375,24.4140625,False
0.00390625,-33.248073892153265,-24.440750904716,-36.1328125,-26.925701393989474,False
0.0078125,-48.60575782732448,-33.64137363614801,-36.08833906546489,-51.002690642789375,False
0.01171875,-9.468537675215767,-24.898159421481914,-28.37470877073514,-4.059784968552978,False
0.015625,24.812918671956297,-24.548200117065555,-34.695914086888656,34.41646071800208,False
0.01953125,16.411444544974596,-36.1607877249495,-36.94152365030299,12.114826582297852,False
0.0234375,-30.75212526969335,-37.98516112743298,-25.34863484476374,-28.209942647126333,False
0.02734375,-57.450651224980106,-32.07996156156271,-23.05672610485401,-49.38443147647977,False
0.03125,-24.13867390738814,-24.891165615244535,-28.230887421956297,-27.37779250130073,False
0.03515625,29.271709252769785,-24.237902269388506,-24.65313709868703,33.49008027215829,False
0.0390625,26.963514089949197,-17.787939187121257,-33.62146818762625,24.38223171520169,False
0.04296875,-20.19613811989241,-25.242380871891353,-31.235215777309072,-27.09161441185549,False
0.046875,-56.882598229246284,-36.06018321182903,-30.764876545137867,-50.138236788244456,False
0.05078125,-31.837742628381687,-35.16007543763006,-25.411664906965356,-29.379121909046393,False
0.0546875,33.623321247398536,-25.888560093652444,-9.294110952133195,27.284810744016646,False
0.05859375,39.94312182469242,-14.667266978331394,-21.006853451903655,32.150347944849116,False
0.0625,-12.414142834190232,-25.001297062446444,-26.83245635175664,-9.426924338581834,False
0.06640625,-56.00529449065006,-45.81388417587378,-21.957951324065007,-40.85754704619881,False
0.0703125,-36.123158656347556,-34.44440605489074,-20.10590774583767,-19.4911103342872,False
0.07421875,11.483395927056556,-13.430035614824336,-28.43056280794773,31.105440298307627,False
0.078125,29.644592699853096,-32.0841458900808,-36.52676702997796,55.76024227979433,False
0.08203125,-9.789714777039848,-52.777921904648956,-30.8543717386148,0.7115749525616699,False
0.0859375,-61.18201719151671,-29.614446095758353,-35.548506788239074,-62.86840757551414,False
0.08984375,-44.34325235918608,-21.97265625,-31.064306251843114,-34.240222279563554,False
0.09375,18.882934606310826,-21.97265625,-23.51491079327632,22.852080875847832,False
0.09765625,36.978114671318394,-18.58021034168809,-27.7992161678296,37.00728363324764,False
0.1015625,-9.064391316490173,-29.247559699608253,-34.150546640677604,-6.634193089306478,False
0.10546875,-48.76033887800698,-34.17131884296383,-25.405688582665114,-47.29382139659974,False
0.109375,-46.32646441933954,-33.19666917885781,-20.508350485095182,-26.295097497245518,False
0.11328125,8.394026292232832,-27.35929084037214,-21.005806775232585,39.056672184860446,False
0.1171875,31.50605101724613,-31.286493322289893,-23.490581196058027,37.275851498898206,False
0.12109375,-2.852247534354533,-36.635260690839814,-31.22166611832038,-9.921461349237926,False
0.125,-45.05666190399682,-37.908263853822376,-28.283552435273595,-25.8666528950912,False
0.12890625,-54.95138168918712,-23.745735571478853,-25.43563641963029,-24.527248586414274,False
0.1328125,-8.083926754345697,-12.296092219824947,-28.13328446336761,0.46467112712694336,False
0.13671875,55.70572393494446,-17.03029444132593,-18.00685694132593,51.28141803060742,False
0.140625,34.43415692950839,-14.194085507267786,-15.170648007267786,28.591746558142283,False
0.14453125,-45.16809284522863,-23.352886899752097,-34.489835907372836,-41.834737195476535,False
0.1484375,-70.64378887600992,-33.14155936314114,-50.67966669918289,-54.12533998576937,False
0.15234375,-6.5685887957550335,-30.770087407036176,-37.64284699799535,3.2204684439462596,False
0.15625,50.74628310916269,-30.27373636231485,-27.350026108611825,45.87243647860815,False
0.16015625,25.756163497291592,-39.064711581129885,-29.771886763220714,22.837533902940997,False
0.1640625,-28.44682866155047,-40.07875384480015,-23.876167068999816,-26.43416664435025,False
0.16796875,-52.8185944003244,-47.74666182748806,-14.05137036739503,-39.17391587097564,False
0.171875,-1.8364718985278814,-34.352350827492806,-0.5777063280437045,8.285926883760789,False
0.17578125,53.57764490757743,-5.504386342422573,-8.835714907347901,51.46456879667034,False
0.1796875,42.76352124839332,-15.426137015699595,-12.247228231347167,29.14792202227935,False
0.18359375,-28.534561901248665,-32.84257659568158,-14.922150740746233,-38.441764712970105,False
0.1875,-65.0750767903221,-39.48630657551311,-29.158714983242376,-56.949298228215085,False
0.19140625,-33.42601651441425,-28.882890921471414,-23.962929835735707,-17.366769570938914,False
0.1953125,30.503306575947235,-22.48658145620371,-14.1996084903134,37.863032342229296,False
0.19921875,31.2494022753703,-30.75155743129514,-23.91382675740605,18.0909129598176,False
0.203125,-37.647685801505695,-42.97681928250092,-38.567763323999266,-51.2888975280022,False
0.20703125,-67.72492019180744,-47.797020127540094,-34.62651654693047,-62.818109047925084,False
0.2109375,-34.757901925078045,-35.66942800468262,-25.355058207596255,-24.479098920395423,False
0.21484375,19.65031674623577,-38.99800551245563,-20.428434669176152,33.33707508951524,False
0.21875,30.616411892520503,-32.49308791238218,-12.79668659719672,45.6327489020994,False
0.22265625,-18.20272569550713,-15.879466950021424,-20.608057056069047,-12.13515046367142,False
0.2265625,-56.645795318046886,-31.81120365482311,-26.700508639750886,-37.411405255386214,False
0.23046875,-30.128359170484295,-35.53236716704843,-18.717835257020468,-0.9742384578772014,False
0.234375,22.227661771924083,-30.29676507280759,-26.33325648500714,44.71828891004284,False
0.23828125,37.57356647296015,-14.185800206203709,-34.65475822710718,51.74693324585297,False
0.2421875,-6.904675832415228,-29.809662959817604,-38.57063240222181,1.403875837770841,False
0.24609375,-62.82061949136981,-49.7100079186559,-35.61888886338597,-48.21163181692986,False
0.25,-20.975560652200528,-26.316975557782946,-29.31361231407235,-16.142960094417578,False
0.25390625,52.734375,-19.285316201110906,-31.80480800128535,50.34999167967315,False
0.2578125,52.09107386728792,-43.988199242180805,-38.5864721049088,55.47840923001591,False
0.26171875,0.6846458097416905,-46.89066134388199,-39.43825270092428,1.683714019556834,False
0.265625,-49.17390869828008,-16.503595433192558,-32.27999908189497,-46.581098799577674,False
0.26953125,-40.19823656888848,-11.302434795415596,-35.02259877279961,-29.713070659658463,False
0.2734375,21.253818498653363,-14.660093843728959,-28.62209225033666,19.684067655092733,False
0.27734375,50.76529328671954,-15.162167960596936,-21.059716776492337,45.23675802447969,False
0.28125,13.480722663422696,-16.139700678632636,-23.446824504223283,20.324430583608766,False
0.28515625,-46.34864369108826,-24.475568364395887,-26.40526255891174,-37.18552511782348,False
0.2890625,-39.59148629728241,-34.53886022998531,-32.73205821933529,-49.4302727919574,False
0.29296875,10.957979299289955,-19.93435027659607,-34.736113528723145,-7.028924708866377,False
0.296875,28.999387451799485,-12.829890200376424,-40.29360353355674,17.85391514414249,False
0.30078125,8.095522612161831,-22.35325740795997,-24.23644862628535,2.868211521835598,False
0.3046875,-31.476149113646102,-43.807656517780636,-14.386305363646102,-28.457968482219364,False
0.30859375,-41.52778681061395,-36.40326956257269,-25.54753731942829,-34.192360037797634,False
0.3125,0.27202447897539495,-6.448552167492961,-32.17611454125352,8.134972437721876,False
0.31640625,46.64995667691884,-10.589588402038194,-30.077622911311053,56.233753844564816,False
0.3203125,20.279601236381442,-22.233802140714896,-23.775453505631045,23.175278204951645,False
0.32421875,-46.858646082535884,-29.946359150717704,-34.26145708732057,-60.09130158492823,False
0.328125,-45.65032200621251,-20.527896047557842,-36.54075955976864,-60.13139660989717,False
0.33203125,7.872929960062431,-22.077556922511935,-30.8504808575101,5.318553755049578,False
0.3359375,40.083473439986534,-28.169207713612437,-36.02892795935855,30.910014230627983,False
0.33984375,16.474605788652223,-20.691732368557965,-30.5237048024544,12.61163105184233,False
0.34375,-32.48262773136247,-29.15001405848329,-20.09269274467499,-34.704011545170765,False
0.34765625,-41.29995012280406,-42.41262285188529,-23.17989480359001,-54.008831802427004,False
0.3515625,1.392489183575101,-39.08079037366875,-31.02540497039111,-11.656347548659566,False
0.35546875,45.13224418342208,-8.34767274719978,-23.713260257911006,36.49031160102216,False
0.359375,35.2839538671349,3.455236880661648,-17.40089964729465,31.42109867525095,False
0.36328125,-14.157556147860815,-21.770834528782594,-12.771701707675359,-3.884552595941976,False
0.3671875,-37.49224751155282,-28.05112721301567,-15.590152654088628,-27.159501382895705,False
0.37109375,-21.790710492171005,-10.532866837467745,-37.0256467349871,-20.70948766090488,False
0.375,25.937274060089976,-5.887617488753214,-35.10541352024421,29.323234656169667,False
0.37890625,40.627970691409594,-13.186851349231851,-21.96939865076815,35.77121898526441,False
0.3828125,-17.41410936161097,-13.634816072958747,-21.451948438838905,-18.29339217812768,False
0.38671875,-50.951153225991554,-9.897781915626148,-18.25863449091076,-41.50560976519464,False
0.390625,-24.578566386882535,-20.61116541439677,-33.839053270566815,-1.8065240615627105,False
0.39453125,28.478470437017997,-27.15923240681234,-43.26372710475579,39.12024019922879,False
0.3984375,36.022113898579995,-16.97806924424654,-32.45064946367364,14.801933184906353,False
0.40234375,-15.725059103011384,-11.730286085353164,-19.800345628289875,-24.21418338382911,False
0.40625,-39.65173693995593,-12.181209545997062,-11.039137096033786,-35.70675438395153,False
0.41015625,-24.2049186520688,-11.059041326202717,-22.38693919084343,-19.005252325866078,False
0.4140625,15.528228382451953,-5.449395676490391,-36.1328125,14.836362123576937,False
0.41796875,25.919656181997293,-8.418149095012645,-35.903647977562784,19.116456470916898,False
0.421875,-15.014296649855908,-25.826841678674352,-29.316575108069166,-20.876485951008647,False
0.42578125,-59.07396196749908,-36.619121258722,-30.761449773916635,-56.63407991530481,False
0.4296875,-43.296402587367645,-22.91837804677459,-35.61112048817247,-37.93558907177612,False
0.43359375,17.751704232464196,-11.277808540672053,-22.89661898258661,19.153428261568124,False
0.4375,49.4482643033113,-20.155692920645123,-13.20361752509487,39.226396093463094,False
0.44140625,5.745149823264781,-36.52964188165626,-15.646518086669115,-0.3819460383767903,False
0.4453125,-48.03590077579875,-27.935318066011753,-17.44979352200392,-34.45183152390133,False
0.44921875,-25.52176578375566,-0.7402819538805239,-8.227619755325009,-18.09186931922512,False
0.453125,24.775207721263314,-16.157214010282775,-4.276899042875505,38.28551775385604,False
0.45703125,42.29427752784919,-42.229005998286205,-23.13415475042845,47.2411063356898,False
0.4609375,11.310683395305423,-9.728864935273595,-31.17647987054719,-2.250911410515363,False
0.46484375,-42.57238864561217,-8.839169210014154,-28.1758669497523,-51.87599522292994,False
0.46875,-45.87505436866006,-28.183354159294645,-22.985963670677044,-56.12227972399151,False
0.47265625,4.665240734790061,-20.54128507926307,-19.54589425342759,8.997010898671817,False
0.4765625,43.400366955104666,-9.293840949779655,-15.630738156445098,44.38195034199412,False
0.48046875,23.382897855077122,-16.136502851863753,-14.650320332583547,10.20871826799486,False
0.484375,-19.089023432718204,-34.169675612452565,-16.111278872490512,-24.894334239962053,False
0.48828125,-30.02690597648121,-31.650475501897418,-15.763462910469459,-22.74321295637471,False
0.4921875,5.689471774008447,-19.023961106775616,-35.74907328773412,7.064029218692618,False
0.49609375,37.798001283355774,-17.439042991462145,-46.22130858299162,30.010006493282944,False
0.5,14.299904268423308,-44.82474474767413,-33.1657672106439,8.365813689711104,False
0.50390625,-39.78078568750765,-38.184980471140896,-30.77941139903905,-50.567204810105274,False
0.5078125,-51.10133153920309,-17.33514993802791,-31.49297506197209,-64.11116673934998,False
0.51171875,3.527835639595034,-28.819794052985515,-20.12033397686964,-1.466979890260124,False
0.515625,49.404276668267805,-29.29274705328111,-24.376910979530003,39.67993113545669,False
0.51953125,31.84554293479924,-14.735406433621007,-34.6070904964653,22.565300220345208,False
0.5234375,-14.990395760650017,-18.542493917554168,-37.101754010971355,-28.161795928204185,False
0.52734375,-17.089126524343595,-27.340522484546177,-46.38331192813207,-39.54665720247567,False
0.53125,6.425360451860693,-22.96236869185335,-38.0596376162933,5.9406655496388785,False
0.53515625,38.11420814462329,-28.276621503764,-27.28720871075341,39.113901172042354,False
0.5390625,43.00288007635574,-20.136984139735585,-16.52326057350961,48.55798335360815,False
0.54296875,-13.654391554581345,-34.943041624586854,-6.962894211347778,14.602442589744767,False
0.546875,-56.320722778185825,-59.61872819500551,-18.574681388863386,-33.813132870837926,False
0.55078125,-32.25453430059979,-27.799875633071178,-20.10795919655426,-6.456017092921844,False
0.5546875,24.34837256319623,-26.301198700881383,-25.503236320235036,45.08170656598115,False
0.55859375,19.921648984110735,-47.93501452065159,-31.156116476766957,27.141552708296242,False
0.5625,-28.97752613902736,-51.733008704972995,-26.883373019405376,-26.5051151452436,False
0.56640625,-46.8093698356592,-48.35260517084404,-28.314843319638268,-43.395047205900354,False
0.5703125,-30.776512434585015,-49.31550966305545,-31.735143195694086,-19.553216380141386,False
0.57421875,21.056165075284614,-45.8733330655527,-35.13742167416452,19.100350314450974,False
0.578125,53.44518912963643,-32.26744686467132,-24.920514578742807,50.11580316975762,False
0.58203125,-3.8554764004070017,-41.1031265300814,-28.848698617953975,11.787753085026623,False
0.5859375,-61.67732170591566,-52.69943799539417,-33.955092470391115,-43.600933454599705,False
0.58984375,-28.456645143521634,-49.10634878588041,-12.283415782407124,-9.502791681329947,False
0.59375,35.31817360218509,-33.01035880692251,-18.22061920446199,47.4018344886155,False
0.59765625,44.45618774100257,-21.341339496113356,-27.613981305086302,49.323160538315584,False
0.6015625,-6.737976429096028,-39.72859344398372,-16.155119413290286,23.360966045581126,False
0.60546875,-46.56504704891078,-47.56456902676924,-18.41079841787691,-2.693960506443069,False
0.609375,-33.708669452339144,-35.66051569661032,-32.69566241406761,-13.169527436982918,False
0.61328125,20.568059455138012,-28.817200457876858,-36.61105259081033,17.62617911897913,False
0.6171875,61.36052765217591,-34.67415519991737,-29.791342699917372,50.19398555132207,False
0.62109375,22.502446934864434,-36.184363094054106,-31.195012699675623,26.50148800416182,False
0.625,-40.58950711148855,-43.44746765592484,-23.43271820296242,-23.494881564450974,False
0.62890625,-46.123899230321946,-42.320398094166976,-23.04772376897417,-28.588870176123148,False
0.6328125,13.433337700440664,-29.709847556077484,-30.739126141823245,27.555839603479406,False
0.63671875,59.96992130118436,-24.627181216718693,-29.110474574228792,71.59990919367425,False
0.640625,27.937313999479773,-9.704122899963279,-18.69445684979191,34.77325149947977,False
0.64453125,-12.764887646896804,-7.137429803219488,-2.6153441172420124,-6.010121151609744,False
0.6484375,-15.028387791480506,-19.79064661239978,-10.180659579839647,-11.675268194580452,False
0.65234375,7.603740384758863,-29.241034790199354,-25.586065734302256,8.705943356810314,False
0.65625,33.642542261522216,-27.395871587709635,-32.19398650768148,39.02666640844963,False
0.66015625,25.899347181207542,-35.225731235464224,-27.31132542345003,33.279150919578925,False
0.6640625,-23.19428584817603,-42.40874179443628,-23.985553712969764,-9.956896881503244,False
0.66796875,-42.33651558387906,-36.45935936448069,-28.83064843893445,-24.75103902090091,False
0.671875,-0.01990423016893139,-25.922390716810504,-30.343012646896806,17.976926872934264,False
0.67578125,52.79480126155212,-28.723154243680764,-33.94805349738356,66.91467333718404,False
0.6796875,54.03149721890684,-47.74881363615498,-22.823636805300527,66.37552695403355,False
0.68359375,-15.093864517029806,-43.08610604802926,-17.961840726176632,2.9085891119407554,False
0.6875,-48.82929056302791,-29.579598749846983,-32.523422437339335,-33.105337250581464,False
0.69140625,-14.717380816221922,-38.90739995180244,-42.44944874036049,4.1394678759409995,False
0.6953125,27.950022091902312,-33.57287745593096,-41.234212897080425,41.30217418747705,False
0.69921875,29.752810648674526,-16.5302677689845,-32.924987891583385,48.65692998810664,False
0.703125,-9.985527891265761,-14.995207443919085,-12.636107875428449,30.784820806937812,False
0.70703125,-22.56908915210539,-34.717128591866086,-9.759110200287655,3.8636049578462575,False
0.7109375,-26.926713165202887,-36.2934710470347,-33.381953263663625,-21.525585590840933,False
0.71484375,12.908371444255723,-1.2018747991645244,-41.16589297190598,-1.4145751086424287,False
0.71875,55.82648422677337,7.56619275582961,-46.833311258721466,35.5132191860732,False
0.72265625,-24.700970322254868,-34.71315673200514,-44.9681388863386,-38.26615147585384,False
0.7265625,-108.52759788695758,-49.57472702391517,-31.565698826427568,-118.9144299586113,False
0.73046875,-83.01776461508446,-1.572613500734484,-41.281732005141386,-97.01626623898274,False
0.734375,-44.86386937503825,-5.303286041067385,-60.12640145893261,-55.1322097913734,False
0.73828125,-45.297551821944424,-26.90946986504682,-37.63097735862048,-68.19276945689761,False
0.7421875,-88.76425931876607,-16.89160837656078,-27.78427305208716,-120.66413542240483,False
0.74609375,-126.42773952836411,-12.807398169525065,-36.88520366094987,-140.40366301121372,False
0.75,-94.74290926808557,-15.166842227569006,-32.25333892450578,-94.82658559466614,False
0.75390625,-26.09035133775554,-19.324795912902434,-36.21257885183315,-38.44753101473559,False
0.7578125,2.0228154262806783,1.8681935285207174,-44.32439614381235,-25.681818616500397,False
0.76171875,-32.07265782789644,-5.097741121702675,-35.614885922868595,-49.272804906971054,False
0.765625,-85.0989735544556,-19.10426165922027,-33.7789675488861,-77.7835109343442,False
0.76953125,-64.65527546976374,-22.43063286127433,-38.59442184248378,-58.243602911923126,False
0.7734375,-4.435263690403329,-20.869862034472735,-39.49340319748761,-18.118614300905808,False
0.77734375,13.66016031427872,-15.586538774175287,-36.942709688092904,-0.5128163443295184,False
0.78125,-6.01609839790672,-14.273484839790672,-30.676722307656995,-20.508709086944545,False
0.78515625,-44.13179117066528,-18.25288492066528,-28.034049809887385,-52.91185846555787,False
0.7890625,-47.81229439531183,-23.537433441459086,-34.24722624931146,-41.734793142557685,False
0.79296875,9.30324856106106,-12.414701006153212,-35.992506753076604,7.1894907315403636,False
0.796875,49.29569635917131,-4.894646723330681,-32.22524758629659,29.76510381602301,False
0.80078125,18.3655790019279,-22.457590446936777,-30.30690803063223,-0.16735265316114817,False
0.8046875,-36.62713076875995,-21.399856737360754,-40.06019206565981,-48.79190288744032,False
0.80859375,-37.039744342524024,-7.869609092891242,-43.29009697847175,-42.42841012110594,False
0.8125,24.86734911484791,-14.217534302512394,-24.867916918492565,17.577557196355347,False
0.81640625,62.40750777472611,-18.922564492931023,-22.100143110425975,58.253785038864066,False
0.8203125,21.98849498324561,-10.632631280984148,-30.643735129521392,34.16181662739458,False
0.82421875,-32.832117322346676,-4.785443157822255,-24.00396363156445,-22.59775666773779,False
0.828125,-37.53755871687374,-24.11527824530265,-28.155290830222167,-28.260214966873736,False
0.83203125,7.99766375696187,-31.539520089968786,-41.854779017993756,16.87527374112553,False
0.8359375,51.99703714081339,-5.23272896711855,-36.37203714081339,45.552525542796374,False
0.83984375,41.949369965626104,-1.3518930536704827,-27.817393761802194,32.666782076153666,False
0.84375,-6.675674292605926,-29.205073745279122,-27.345305953469847,-0.3793645071108216,False
0.84765625,-23.428355372880837,-26.85681354810576,-20.511577934696128,-13.176600799850052,False
0.8515625,12.338283545122101,1.4863605196921477,-18.057799542123142,27.444878817553093,False
0.85546875,71.7337722913734,11.167532198650468,-14.169838796361466,73.1550445827468,False
0.859375,62.438527784365625,-1.6079302684527816,-16.162231901049637,55.14819794663076,False
0.86328125,-8.617635076202717,-20.085968342590892,-22.501821864671317,-11.659754579048844,False
0.8671875,-38.074880271130425,-26.231004278490115,-26.490400890889894,-51.69487594865047,False
0.87109375,-0.03699689010955376,-16.215067524404798,-35.83244437197809,-9.630368194962973,False
0.875,57.406173735005204,-22.561857126736644,-47.16144199652671,58.20842051609645,False
0.87890625,45.22959469100006,-27.558529199690923,-36.4317461767091,36.518560365536445,False
0.8828125,-7.953016459850664,-15.445185551058817,-27.89135178866516,-35.0832125206561,False
0.88671875,-32.28365384615385,-27.72986778846154,-30.018028846153847,-50.77448918269231,False
0.890625,1.7991863905325474,-23.94288553994083,-20.550573224852073,-14.324785040680474,False
0.89453125,62.392535689148666,-18.564220624349716,-15.146251874349716,34.581303983184405,False
0.8984375,69.27664684573719,-12.213725356126446,-12.21563795787686,46.82957570842769,False
0.90234375,8.62135123401065,-19.10859489756105,-21.0252609266938,0.32421588109737437,False
0.90625,-35.99659939408777,-36.643267976543854,-28.814929243298245,-43.393676317017565,False
0.91015625,-14.771202624854642,-39.98491196294143,-29.87540714509762,-33.33942775911928,False
0.9140625,24.59562901621787,-34.1562595624235,-39.55078125,4.640524594553243,False
0.91796875,39.55078125,-32.21939024343595,-39.06306780364466,24.73020959246282,False
0.921875,38.699075783019154,-31.380564953868046,-6.483929124716935,12.36595650169839,False
0.92578125,-9.563337480491462,-11.496738774940328,-14.574354066573841,-33.56320216391762,False
0.9296875,-22.350454864511292,-24.503715707050617,-34.63434879735602,-26.211878260985984,False
0.93359375,24.473110330422276,-28.1500323416464,-33.04500771010023,22.240239355984222,False
0.9375,45.82415712479983,-21.507484450062275,-26.876927525057827,32.67852889990214,False
0.94140625,22.47815091575372,-27.33944664606157,-21.488319741110228,12.222092988784503,False
0.9453125,-26.36422894416733,-38.07410327666932,-20.48315786806108,-36.62996941749801,False
0.94921875,-24.701879179034826,-32.15663299850052,-8.321760100449843,-40.71959011031887,False
0.953125,17.32876954678989,-17.62591015935798,-12.783531255737806,21.279128924658792,False
0.95703125,48.73273398769815,-23.930801829594834,-24.56970046743987,58.146918416059734,False
0.9609375,38.92060885764123,-24.560466187113654,-39.28980076427566,14.659315422455474,False
0.96484375,-9.205386513157896,-35.582853618421055,-19.199732730263158,-21.499794407894736,False
0.96875,-34.560594092355714,-31.44947838568762,1.1309154381388091,-22.289460799314522,False
0.97265625,-2.017137389834139,-16.528076754620844,-16.632672162846564,-12.737688582532591,False
0.9765625,39.39475478532958,-35.867110278704324,-18.230411850097926,7.390771314033906,False
0.98046875,12.841010027055955,-44.66810927930071,-25.168797756734257,-10.552298734167806,False
0.984375,0.0,-35.156967181762546,-35.155532818237454,-40.04240934822521,False
0.98828125,0.0,-38.10458536706653,-32.1677499961748,-53.57036127134464,False
0.9921875,0.0,-44.39468425814003,-12.168121758140034,-5.542540566283126,False
0.99609375,0.0,-37.614152440097314,-5.503063270778505,49.643849646551196,False
1.0,0.0,-39.70390892764245,-21.06171989756105,30.236709569511596,False
1.00390625,0.0,-53.168147100113224,-26.74645045022645,-16.099653962528308,False
1.0078125,0.0,-49.21851093941248,-18.961389324510403,-14.426977748240514,False
1.01171875,0.0,-43.34335098345982,-14.25488980545015,27.466903622085194,False
1.015625,0.0,-37.435383945238385,-19.11869582555542,33.475043176984514,False
1.01953125,0.0,-30.407229969321868,-22.533915210539202,23.098700530555725,False
1.0234375,0.0,-35.64453125,-25.43114824958688,-9.588021996832731,False
1.02734375,0.4343061168943506,-35.022025815784765,-26.53697759761081,-19.031171702559206,False
1.03125,14.990494369300446,-14.66606929738662,-16.134439406863944,29.543720163412694,False
1.03515625,61.773032028428915,-17.39185552015117,-19.179361162326337,63.203777675347325,False
1.0390625,37.420870945532435,-47.481377180232556,-32.67133472307221,35.48639267135863,False
1.04296875,-14.303242768452781,-56.4071680488402,-29.214035436685233,-14.73880793270702,False
1.046875,-22.91383561761736,-41.39739824002387,-24.076667597466184,-20.152785800079563,False
1.05078125,6.403360775980782,-35.79783823405655,-32.11413737835853,0.11702731960340307,False
1.0546875,54.84940378289474,-42.7721525493421,-26.832339638157894,51.9287109375,False
1.05859375,59.758853194427445,-34.37172466950242,-26.35547281427872,77.24681695253688,False
1.0625,-6.509091791495807,-23.764674436930044,-43.53278820995777,7.764864262653774,False
1.06640625,-43.54611665340596,-34.7769571653712,-29.193504852270642,-25.15274515729237,False
1.0703125,-14.808727623929009,-37.74766676866585,-11.36577704253366,13.088746461903305,False
1.07421875,36.261516750957625,-27.749852241441225,-15.083238100760115,51.839991508558775,False
1.078125,64.79721400866026,-12.789328829793744,-13.646234182783525,66.1082128553614,False
1.08203125,28.001136733093634,-18.471942654146268,-12.523547467870257,20.983543069155445,False
1.0859375,-34.46624903413612,-38.01869759471204,-28.15702412555848,-26.620129081492134,False
1.08984375,-24.448041065472182,-34.779706530387415,-41.92943025506457,-15.584895132046025,False
1.09375,30.86899718864749,-20.81351122628519,-39.384036490208075,23.921896515452875,False
1.09765625,66.44124463515209,-31.645490180702613,-33.66098392840749,56.14018079824346,False
1.1015625,19.75415775713018,-43.614193321959725,-32.781067585608056,23.122458630424138,False
1.10546875,-43.116916866852314,-34.03648144393782,-34.578464964961135,-41.539707764015546,False
1.109375,-31.562452187882496,-30.061749349755203,-31.687719935740514,-39.76701155140759,False
1.11328125,33.74803719245364,-24.593936717745883,-18.5546875,27.066243439775995,False
1.1171875,66.01551143927107,-17.862893469995104,-19.737571913825814,40.29630743543056,False
1.12109375,13.592478042970814,-24.305017130703504,-45.07803095087792,-17.38234225438957,False
1.125,-39.05455123546512,-32.24246002906977,-48.2643304869186,-33.60396984011628,False
1.12890625,-37.53053588232144,-34.04744901960034,-39.073079078431974,-22.700610406848643,False
1.1328125,13.740843979498164,-21.81344189871481,-39.88648208001836,0.510812710373317,False
1.13671875,53.72226368849073,-10.3413480112767,-28.586014721295673,37.43867122949691,False
1.140625,24.075173377348676,-15.866645277403759,-15.238953290440051,27.26509425301426,False
1.14453125,-18.92702436505508,-28.42669446144431,-20.6461090498776,-2.2084417074663403,False
1.1484375,-34.61650780915295,-32.80865088897729,-26.903283793760327,-12.882926777954587,False
1.15234375,7.331689393359853,-16.73080463012546,-28.928273456624847,19.419040936735005,False
1.15625,41.69134122154048,-4.753831419456515,-33.2908058364955,49.48922774879124,False
1.16015625,14.836697712668299,-32.194647911566705,-35.76579473301714,21.825813284118727,False
1.1640625,-23.4155947330773,-30.576345802221677,-24.867797380883164,-25.89617943455842,False
1.16796875,-34.950551963108,-12.475726826566364,-24.212389865004123,-24.772927079039572,False
1.171875,-3.8546994059458966,-19.537973990528798,-31.74575235058755,17.109268611527632,False
1.17578125,29.760054888310894,-23.900679888310894,-36.63782799112607,29.76633022873317,False
1.1796875,23.656642322434053,-18.080033537471692,-40.448986847037766,25.264572590886836,False
1.18359375,-14.833739337897796,-20.10030384600673,-29.2398590498776,7.153170899632803,False
1.1875,-33.15755128641594,-28.25358062955199,-23.540631072510557,-9.823182358926495,False
1.19140625,10.011020693084456,-22.778768551101592,-31.58265280752754,24.94764573133415,False
1.1953125,57.50374630867862,-11.954358628129016,-21.266218862843502,58.95074907047555,False
1.19921875,50.202065961597306,-25.39579468520502,-9.267273322750919,24.187343415315176,False
1.203125,-1.353561046511628,-48.56626400895043,-8.93707088624541,-10.323502763540391,False
1.20703125,-37.02611705505233,-36.822903119070936,-15.924172751927902,-33.62790189500581,False
1.2109375,-14.290743095930232,-7.868679238066095,-45.592738773714814,-29.83147423883109,False
1.21484375,30.732070012551684,-10.121409849379798,-51.38720328189604,17.97746003765505,False
1.21875,29.787002085794448,-21.46222497046663,-39.57385419743059,15.142256257383343,False
1.22265625,-22.969301068379337,-19.034362042123142,-38.566329267779544,-28.324257241110228,False
1.2265625,-50.148187681686046,-7.337845203488372,-27.80307503633721,-33.55343840843023,False
1.23046875,-8.463103388922889,-11.242541309669523,-19.585576518512852,6.1279894526468786,False
1.234375,43.858647733184405,-13.244259086770915,-28.450309650223392,49.216741768162066,False
1.23828125,33.64598473837209,-20.110374273255815,-42.95171693313954,37.433003270348834,False
1.2421875,-12.187277660046515,-27.713151097450883,-41.406004947900726,-18.499969159296775,False
1.24609375,-44.15846489634333,-19.773029901698287,-34.75134112989596,-47.564480616967565,False
1.25,-27.14275981104651,-33.38253997093023,-39.46391260901163,-1.8293513808139534,False
1.25390625,31.897086964088988,-17.46318958856111,-34.79432000313667,52.822115605300205,False
1.2578125,58.66738066095471,8.025742044063648,-19.178396572827417,55.483332695838435,False
1.26171875,3.591211191843258,-21.458015789629453,-24.40088289481473,9.582382243695987,False
1.265625,-42.81579721350776,-20.510933985438616,-23.92734199271931,-32.08921714070084,False
1.26953125,-6.370068180079556,7.795168107405139,-4.8944667036413705,-4.411564316860467,False
1.2734375,27.84876549112607,-6.874635432604039,-22.994192023026315,31.75606138119645,False
1.27734375,35.50052712859547,-24.90942591990514,-43.93114816018972,39.871451145578334,False
1.28125,5.447712668298654,-26.536263100520195,-40.923736086673806,4.992511427096083,False
1.28515625,-48.818143609615035,-48.77322735288267,-28.858500701924843,-44.8270517913428,False
1.2890625,-47.1547008873929,-43.311323821909426,-33.76742751682986,-34.98568027080783,False
1.29296875,6.356621022031824,-32.23421243880049,-39.29068333078335,15.427416424418604,False
1.296875,37.212147459682356,-32.12313258346594,-22.877496184359508,33.32382810109248,False
1.30078125,15.560304228503671,-0.7769469094247246,-19.094516189182986,13.166710096006732,False
1.3046875,-32.88920856601897,-14.834366871940025,-21.368131789320685,-10.370149460679315,False
1.30859375,-39.11065591250296,-42.20445598074413,-16.752114919594113,-14.710153561150012,False
1.3125,-3.981294412384287,-31.76059175097911,-22.448768135829575,1.4303638848504612,False
1.31640625,34.65936204212314,-19.04888586166534,-31.738819169242305,18.546349751744295,False
1.3203125,18.860625286872704,-29.773860637239903,-32.67611593482252,3.275966761015912,False
1.32421875,-36.17381139075887,-26.384758453182375,-20.99902224219706,-39.547852757802936,False
1.328125,-42.565634084302324,-29.411444786566708,-21.539538230569157,-38.74000726744186,False
1.33203125,4.018249885250918,-42.21923529299266,-27.609704903610773,-1.5974028457772338,False
1.3359375,55.94614137378358,-19.593110712864924,-8.225173712053982,29.351862300324377,False
1.33984375,40.35342717258262,-24.040829157741737,-3.1351301923959607,32.44709589198286,False
1.34375,-27.351160878212973,-30.46620998125765,-15.146251290927173,-12.4146254876836,False
1.34765625,-51.29152482405141,-16.004658095547736,-15.733473741585067,-46.679896678014074,False
1.3515625,-8.073285218405752,-32.62970829827111,-20.860516514305385,-15.76237019010098,False
1.35546875,38.57799329733306,-29.139737691026937,-34.81201128322531,16.867232562288162,False
1.359375,20.93853991355569,-23.450947158047736,-40.018622819767444,8.740652731028153,False
1.36328125,-31.33707781900245,-35.67046932374541,-21.451026048041616,-35.18959895195839,False
1.3671875,-53.88246347154223,-42.38227461367809,-12.739658238984088,-43.688740724449204,False
1.37109375,-4.927310375099455,-27.15996092554624,-19.57607660352531,-4.04040108215007,False
1.375,42.90465187997246,-7.493204702799877,-24.326655972689718,34.1388977872552,False
1.37890625,36.83346919943391,-21.770052402080783,-17.032708269583843,30.026099439641982,False
1.3828125,-15.341892499235007,-41.06636560970012,-13.242791127983477,-20.08093993841799,False
1.38671875,-54.33572234547124,-43.67170765758874,-16.83608093635251,-50.77117957275092,False
1.390625,-35.96747222115973,-30.195832456777847,-28.242707456777847,-25.203111851667686,False
1.39453125,13.92766982864137,-27.0538890376377,-24.77833107022644,25.572012220777232,False
1.3984375,41.09514252792228,-34.27020181494798,-20.40358208384333,49.815624521878824,False
1.40234375,-8.259184436420933,-20.463794553512756,-33.926168631265305,-2.3223623536352234,False
1.40625,-53.986932948286416,-19.140266409118727,-41.53486459608323,-61.364223148714814,False
1.41015625,-30.222398064565482,-29.635982443390454,-44.85302555079559,-43.342879819461444,False
1.4140625,15.34828736995104,-16.906484279375764,-38.92145425336597,7.514630507955936,False
1.41796875,29.157622207772338,-4.536772299571603,-29.28014075887393,19.94721542227662,False
1.421875,-7.571765988372093,-12.98577111383109,-28.359040315177477,-12.623355263157896,False
1.42578125,-43.74737033353733,-27.739634332925338,-30.284434287025704,-32.82923424112607,False
1.4296875,-33.925087974296204,-44.83569365820073,-31.06950925642595,-15.690502600979192,False
1.43359375,14.2578125,-40.95884811046512,-43.0641351744186,19.72202034883721,False
1.4375,33.2336052249082,-22.40595356487148,-46.282129742962056,25.246590996022032,False
1.44140625,-13.393728006425949,-36.1328125,-42.692395960832314,-11.245529567013463,False
1.4453125,-47.13115341952265,-35.57054199816402,-33.71913727815178,-39.24836960679315,False
1.44921875,-26.298118131662473,-20.396927214337047,-8.59647534510121,-16.31072256033657,False
1.453125,13.255969342870257,-17.720664875305996,-16.607419484394125,28.605392250611995,False
1.45703125,40.714229364290084,-25.19441602279682,-41.25510394354345,42.16825562270502,False
1.4609375,4.6340101935434515,-38.049540525550796,-29.885203105875153,5.9745424380354955,False
1.46484375,-43.36290114366585,-36.62109375,-15.05185224143207,-27.872372724143208,False
1.46875,-38.44476744186046,-36.60633175872093,-29.41497093023256,-28.02734375,False
1.47265625,13.997535285342718,-35.85950648332313,-33.34781642059364,14.093996232405141,False
1.4765625,51.32433588968788,-27.57115638387393,-37.94548940483476,54.132281785495714,False
1.48046875,23.82310472766218,-20.5078125,-46.85820599372705,23.11034558598531,False
1.484375,-40.61968090192779,-20.72804706624847,-33.69917571909425,-46.106420211138314,False
1.48828125,-51.212156708996325,-25.153476897184824,-22.03421435128519,-36.79841694078947,False
1.4921875,16.266698382037944,-9.028182852662178,-12.627359527998776,24.45679458001836,False
1.49609375,58.71955459896659,-3.814276172861253,-11.046521095722506,45.594103904277496,False
1.5,40.82766361306609,-2.1476605530905752,-7.551176895272338,48.723535992962056,False
1.50390625,-30.314406508185435,-22.71069604880661,-31.45813212400551,-13.784203593558752,False
1.5078125,-72.47973363869339,-42.72912164358935,-48.07843099755202,-61.79563786145961,False
1.51171875,-20.952076719323745,-26.683942778457773,-30.675955764228885,-14.407733370945532,False
1.515625,35.99434512881709,-17.08984375,-25.73054835230402,26.3671875,False
1.51953125,28.257499330630356,-17.10101983246634,-18.5546875,25.49545306762546,False
1.5234375,-17.037609011627907,-17.603106831395348,-19.054324127906977,-12.568132267441861,False
1.52734375,-51.155439584608324,-18.43043575963892,-38.141160495716036,-43.88644383032436,False
1.53125,-12.008610962362301,-14.356723818084456,-39.555203870869036,-6.395587897796817,False
1.53515625,39.430952130507954,-20.12979794599143,-24.10178960755814,52.41732089580783,False
1.5390625,20.304132879436963,-9.224093004130967,-15.101218252753977,27.113594419369644,False
1.54296875,-24.97116191275168,-8.94958072088779,-15.132176866242789,-31.80709941275168,False
1.546875,-51.69219036872705,-38.06442204712362,-40.04766868115055,-58.52705209608323,False
1.55078125,-21.68578354498164,-28.179266753365972,-43.821000994492046,-27.942596771725825,False
1.5546875,36.65073544879444,0.4771656129520837,-18.484288465363196,48.817009362952085,False
1.55859375,39.86861230110159,-1.2260819882190943,-9.417074663402692,46.5648188876989,False
1.5625,-24.22843195379437,-25.56717124388005,-22.974439641982865,-31.026538115820074,False
1.56640625,-46.807017145425334,-38.711977413555694,-24.9328239749082,-50.69802703297124,False
1.5703125,-10.789578361177407,-16.44967867442323,-26.90907480608592,-13.826477973349244,False
1.57421875,39.134038880813954,-8.801553415697674,-29.662518168604652,30.344976380813954,False
1.578125,41.29239739519584,-32.145819786566705,-23.879642556609546,32.84937509562423,False
1.58203125,-9.110300164473685,-28.281763980263158,-22.06260279605263,-3.173828125,False
1.5859375,-56.760633414932684,-9.100677975826194,-25.404789339810282,-48.12737865284578,False
1.58984375,-42.700379917887524,-19.96455345802812,-25.84902325289461,-39.192762176571364,False
1.59375,12.120035961129489,-33.66965742778237,-24.90384366877363,18.4631924548086,False
1.59765625,26.33384058885625,-21.463936570589315,-29.783004836377824,21.44564955480081,False
1.6015625,-4.09035653496022,-2.986195446373929,-27.82291706510098,-13.7593711750306,False
1.60546875,-53.19441721809976,-18.16053635633415,-25.440827723378213,-37.17212840422277,False
1.609375,-48.284952821889725,-32.6614169783826,-33.11853261160578,-46.465394750933235,False
1.61328125,11.092172200122398,-26.843993841799264,-23.856931800795593,-1.4138043145654835,False
1.6171875,40.026631349449204,-25.864801675336597,-18.087563111995102,43.338815789473685,False
1.62109375,5.2235127516675846,-25.144975397390002,-19.589816259714826,1.2168634492993085,False
1.625,-31.037654433139537,-38.80189407703488,-22.785133539244185,-40.35928415697674,False
1.62890625,-20.11300393971848,-25.560866020884333,-15.021312251376989,-7.176419541768666,False
1.6328125,-2.291076223150358,-12.013493666238297,-31.483338735771984,20.753432221865246,False
1.63671875,21.883236348021796,-23.45062957163587,-39.96277216965766,29.774513777837004,False
1.640625,1.0350960968964706,-23.924450940979625,-19.588453287876096,11.769301742774225,False
1.64453125,-62.000154901780796,-25.87854768106297,-18.554866784468516,-51.74615900954654,False
1.6484375,-60.413337951701244,-29.33362831604553,-19.525124447325744,-51.638976778119456,False
1.65234375,-7.123407856487148,-43.93778209149327,-17.1375363372093,-4.24141294369645,False
1.65625,31.573807565789473,-42.4039693619951,-26.393962285801713,25.348550336597306,False
1.66015625,10.197401761673092,-32.68400682141546,-29.764598297610306,19.577535273621564,False
1.6640625,-41.002775493421055,-29.78515625,-27.748509457236842,-21.934107730263158,False
1.66796875,-39.38123790427453,-29.924460282035984,-21.430201209763784,-18.416100605838075,False
1.671875,2.1055858896878825,-38.059820130813954,-18.06640625,20.54391064871481,False
1.67578125,35.936364462209305,-10.607775684669523,-18.107763731640148,22.14041701728886,False
1.6796875,25.57358480011933,-5.047126715393794,-20.136066154534607,6.415246494630072,False
1.68359375,-27.47026094519613,-31.688094132024805,-24.90234375,-31.175762473295354,False
1.6875,-50.73297532416474,-29.789097039864103,-24.90234375,-46.84248848362115,False
1.69140625,-14.138044498883177,-17.587388030873264,-36.13370892234257,-19.023247458463374,False
1.6953125,21.937813169369644,-32.73068151392289,-37.60399135556916,13.188345079176866,False
1.69921875,11.021781628648798,-37.56577349534912,-39.55078125,14.422359785202865,False
1.703125,-24.168427746328028,-32.26003098225214,-39.49639496634027,-23.558823248164014,False
1.70703125,-51.993183126415154,-36.03384747337984,-33.25810557034453,-37.383232025656326,False
1.7109375,-28.8829714752907,-27.42515013004896,-38.07237081165851,-17.88991977126683,False
1.71484375,35.237226818279176,-33.08975745440915,-37.09317963634417,29.321168045483752,False
1.71875,38.71604144354345,-26.085693658200736,-36.11404624388005,29.438697693543453,False
1.72265625,-29.664378279710544,-11.943393439049018,-34.97439578743651,-38.770565123768435,False
1.7265625,-66.70875129092717,-21.88877586635557,-27.011246605339657,-68.34135580821604,False
1.73046875,-19.407732788209543,-18.295845214872834,-33.30666191405086,-27.73439826672226,False
1.734375,20.962627315877242,-8.814162325592068,-37.09622747230892,11.706797702099015,False
1.73828125,7.163012132060461,-19.157053433464903,-31.733321046371092,6.70201200201946,False
1.7421875,-24.64750516370869,-41.436132573439416,-30.829492426560588,-19.768457867962056,False
1.74609375,-54.49447038889909,-32.56245195176244,-39.48982453070497,-50.17105531140995,False
1.75,-35.540868602738676,-18.257355894277847,-33.53864653457772,-38.01409979345165,False
1.75390625,9.407892723823512,-33.04505586025947,-22.14928133223181,4.586515035034576,False
1.7578125,16.73543642900857,-53.549571603427175,-33.409314756731945,15.95609891370869,False
1.76171875,-29.296815238510494,-44.3565313092834,-44.51582555955878,-19.500353309925952,False
1.765625,-74.26760501767028,-18.054842401780796,-48.09700293739673,-63.1296470534239,False
1.76953125,-54.520456414473685,-17.758018092105264,-37.80324835526316,-47.3375822368421,False
1.7734375,6.850818110886727,-24.045812201670646,-27.15962485083532,8.733125745823388,False
1.77734375,38.485437688590466,-11.809252416198614,-21.237433526529635,38.32899863131871,False
1.78125,-10.825858705630354,-14.816078736995104,-28.90227561773256,-0.5670218310128519,False
1.78515625,-66.73215928301512,-31.374901513065296,-38.10467272695979,-56.13360852304021,False
1.7890625,-53.544113302046995,-40.880085941802825,-39.44536198251331,-53.84414586010648,False
1.79296875,-11.163382372628519,-31.997363161719708,-32.512090489213584,0.7581208881578948,False
1.796875,18.61752670621443,-19.622416152239765,-21.535022862355426,41.32363571690839,False
1.80078125,-2.5150369109547124,-24.348141542992657,-23.937196393053856,8.509959264075887,False
1.8046875,-46.47582313085184,-42.08129188085184,-24.490437683587295,-44.123521261703694,False
1.80859375,-48.55743533328744,-44.485227676932254,-27.539946970044674,-49.50596969470963,False
1.8125,-4.83296836750306,-12.846996442778458,-34.11848798959608,-4.7717688570991434,False
1.81640625,41.29441234854048,-2.8899759902239763,-32.110266641423415,43.39706059528181,False
1.8203125,19.282851368872773,-16.108261284881586,-29.220260770454683,25.77369614772658,False
1.82421875,-38.64933444220632,-28.639583442535795,-40.22685173051578,-28.883680191547356,False
1.828125,-39.66166869377639,-24.543416244033413,-44.68306808793832,-42.202577823802095,False
1.83203125,2.6160400091799265,-30.851605530905754,-33.281775933292536,-4.663235350367197,False
1.8359375,30.46052084289517,-34.29147136611896,-36.746592877960346,25.127076831283276,False
1.83984375,17.38279457155315,-20.157879098203903,-41.25488012323297,13.794744622422128,False
1.84375,-40.20096628289474,-25.416443543451653,-32.911411318084454,-32.710421129130964,False
1.84765625,-58.65691789440671,-41.56964388845542,-38.651639759653634,-46.01090862324827,False
1.8515625,-2.9061115923903067,-42.730540702833366,-26.501083117235787,8.094006496312955,False
1.85546875,35.9939566791353,-22.810362929135305,-17.2038686719754,40.51569025954654,False
1.859375,18.458495496098532,-7.932926770960832,-20.03982151736536,14.591511197597919,False
1.86328125,-29.543122217505047,-22.080675142280153,-20.5078125,-21.631208979713605,False
1.8671875,-44.1970577745395,-24.230953296156905,-21.171583363931216,-44.776893626461046,False
1.87109375,-17.535029545921965,-20.5078125,-34.92329927319603,-19.372927286549537,False
1.875,22.45570836966832,-20.55487467298513,-39.92402163270302,32.68346896800991,False
1.87890625,21.39942404266875,-24.869773738219816,-29.296875,29.107700004972155,False
1.8828125,-21.269054353313752,-22.21137351982743,-29.039512145447034,-21.230059981411785,False
1.88671875,-37.65900141897681,-7.017612428094976,-13.192677496404748,-34.872412805596355,False
1.890625,-14.244962993421053,-17.00596336635557,-13.931106324586903,6.616330467793757,False
1.89453125,26.97230246198213,-35.56274765161251,-25.797122651612508,41.223505341242884,False
1.8984375,30.506298143855947,-32.045007094884035,-22.435001013554864,28.4883319277431,False
1.90234375,-15.674661797778594,-25.47614369148155,-21.7124248439508,-20.325749122223243,False
1.90625,-48.93456021280827,-28.599996270883054,-29.49886883452665,-61.88508415373906,False
1.91015625,-20.341127505354958,-36.38594777960526,-35.67817902769278,-26.301445838433292,False
1.9140625,39.497802689553886,-15.460327215669176,-36.4215800172878,30.599914517165413,False
1.91796875,49.30331058429119,1.1093899664750957,-30.857130028735632,38.276760057471265,False
1.921875,11.998792339820085,-7.851673656370479,-21.00227906416376,18.379436932026803,False
1.92578125,-37.203081015543724,-17.136696757771862,-22.568030089192828,-23.046271408956,False
1.9296875,-50.23006593291004,-23.902622255584454,-37.960878930156056,-36.58598172620869,False
1.93359375,7.841544083899394,-21.37734217229668,-24.628815412535953,18.351827123875527,False
1.9375,48.980337513769044,-12.89778442644269,-2.614953615522306,40.74463652583991,False
1.94140625,-6.9068445072975955,-26.477895659307876,-14.356024531852396,-10.480970029373967,False
1.9453125,-65.70234929586623,-32.52862694870265,-25.361222347163576,-50.51662612447219,False
1.94921875,-53.634861123860226,-23.625957857153786,-23.936867006303164,-36.300622762529834,False
1.953125,13.672592137874059,-31.602204338397282,-24.649104438222874,20.335340841288783,False
1.95703125,49.99956971727556,-25.698067982758094,-33.418296242962484,49.94494771586806,False
1.9609375,4.649204837525243,-2.755154069900863,-23.492510451089284,2.8604239336637907,False
1.96484375,-33.56609053748671,-13.149581957860688,-10.031920889090747,-29.61553000930521,False
1.96875,-29.782915194143566,-26.855408988510494,-18.067721002769108,-9.76416084350713,False
1.97265625,6.921396429992044,-25.877591497230892,-39.55472550830733,14.223264382917202,False
1.9765625,38.402643513631354,-25.406222748760786,-40.93243700660914,37.441678762392144,False
1.98046875,5.912592606404137,-28.382464449085123,-25.3712025159109,7.826872638225935,False
1.984375,-48.33984375,-36.17933681957958,-23.011251176106114,-51.31605556957958,False
1.98828125,-47.79123327634478,-40.28853683793832,-28.75050558220121,-54.992821449880665,False
1.9921875,-6.123939114038309,-22.19780766170981,-24.297975806636682,-4.27916169451074,False
1.99609375,37.66181020898354,-6.4549580044060955,-17.360563297457315,32.79704567881402,False
2.0,14.054288771342023,-38.1580994985772,-31.975384959610796,10.148038771342023,False
2.00390625,-36.411061995134936,-40.97059471765804,-42.818031523468576,-40.47962420063032,False
2.0078125,-46.82127442093507,-19.12024035592987,-36.27337152331559,-57.40891870907533,False
2.01171875,-7.213113009947303,-21.65746635198946,-23.355276548345078,-12.561858402658535,False
2.015625,47.260212823435374,-10.762801185312926,-20.513189983125113,25.806310227810997,False
2.01953125,30.718690477556454,-13.19112369767762,-32.22871391362218,22.928421751652287,False
2.0234375,-27.896125447494033,-23.442430322884157,-35.15953688192277,-5.47627397152867,False
2.02734375,-46.62902170919772,-24.94626844478612,-36.135740812985745,-36.454179909812744,False
2.03125,-5.560238864283091,-32.25184161006058,-36.600027824949514,-8.515205474343675,False
2.03515625,28.577675354552966,-35.095771372621016,-34.21817389924117,22.668817841242888,False
2.0390625,7.6971005637659875,-29.893683114940945,-37.502695243176674,-2.42114710505783,False
2.04296875,-35.672589269322565,-37.85582588466128,-30.705244142417843,-35.934972088993945,False
2.046875,-65.77965924649676,-52.689586504482314,-27.409214705589893,-52.87662852045343,False
2.05078125,-32.16390257825408,-24.998141417676397,-30.54956546225751,-33.798468958448076,False
2.0546875,36.58541614076556,-7.764242597224772,-21.06744896846888,27.29617985435408,False
2.05859375,33.6464051079981,-25.518577956949315,-24.27125423376315,23.765622446743716,False
2.0625,-22.44724276175055,-30.27227692896191,-37.10624145819716,-36.60635449781626,False
2.06640625,-53.614219447971486,-25.897550693764533,-34.644663195294335,-46.27135625420695,False
2.0703125,-12.847166444832018,-33.70350795162475,-24.90960477097485,2.2048403937947496,False
2.07421875,54.66156351355486,-36.03647697891806,-26.374597924698612,52.54170395783612,False
2.078125,50.55095910019277,-23.332708228153113,-27.273888818768743,26.585257175203477,False
2.08203125,-19.57634004383147,-13.196143662796034,-20.545462238388104,-47.21384764549293,False
2.0859375,-60.040366495701,-14.394510931093569,-23.445059828422373,-72.58448242725353,False
2.08984375,-26.94761532783625,-29.04923854179415,-24.09382027521111,-29.87730282783625,False
2.09375,21.137489434168657,-14.998819112967382,-33.405118834526654,18.17750285898966,False
2.09765625,27.08065004245456,14.329669714980723,-42.786596979988985,22.48119664494217,False
2.1015625,-5.2813917542531055,0.6724960413989352,-35.18158887155009,-18.832399141729393,False
2.10546875,-38.18008399205805,-10.402416156946597,-36.146403353722135,-65.1296992341161,False
2.109375,-24.20247694640781,1.477931516201579,-36.61891245563307,-37.36207645837158,False
2.11328125,23.101730071216572,4.328674088565571,-36.10161700247843,15.264966906477571,False
2.1171875,44.067763791995596,-4.873310423168717,-31.724028134753077,32.87055231090508,False
2.12109375,6.328952048402888,-3.821752424733815,-30.182904383643372,-1.4835479515971117,False
2.125,-33.98283315357077,2.725542251851172,-22.963800553439203,-41.9921875,False
2.12890625,-20.095637506884522,-10.956581843598922,-23.9858116662077,-41.29754982673949,False
2.1328125,30.746748496879015,-22.959079395768313,-27.31416806269506,-1.5342268393152194,False
2.13671875,52.5072952362012,-23.214603284481704,-26.26897550215702,41.421709351288094,False
2.140625,-0.49909807960039165,-13.609872454638639,-43.56397443546906,-5.394311088672664,False
2.14453125,-56.950996295743835,-11.517861753029191,-65.99568856710115,-62.089438567101155,False
2.1484375,-49.149492409812744,-21.274791456306225,-50.88953781898292,-46.62400174407931,False
2.15234375,3.393865462334907,-14.394448376710692,-23.6121175222614,-7.034658309926493,False
2.15625,31.435290498210023,-6.981606130668258,-28.81442049522673,15.874384695704057,False
2.16015625,5.544092675315139,-19.199414755690857,-29.261319089615714,-4.674257664300575,False
2.1640625,-48.953624127960346,-29.58435764526345,-26.86383535853069,-56.824690387675176,False
2.16796875,-54.98451460283948,-17.796164794458722,-27.18932631111927,-66.15707446950921,False
2.171875,3.738928068779831,-4.613244917237792,-19.760899350599683,-4.4087536141537145,False
2.17578125,38.526080870203785,-14.647810004360199,-30.028983127180098,36.963706369331746,False
2.1796875,16.082265036946943,-33.74531111353345,-39.45644773881647,10.818981014013831,False
2.18359375,-37.41814372093379,-35.39360811100232,-36.1328125,-38.52874303940766,False
2.1875,-61.14643214345817,-27.087492733002875,-35.95663562893948,-51.16479923964262,False
2.19140625,-5.071240476409033,-19.323638585459886,-30.45030162818983,-3.75825067124105,False
2.1953125,41.96511554525427,-13.85773323236032,-22.4373018309008,26.03769252761459,False
2.19921875,14.69598198245404,-18.28246171177915,-34.315800394110425,3.9127413131025808,False
2.203125,-31.96111820768572,-11.969732896830253,-37.38850383597479,-31.65784720734916,False
2.20703125,-63.86746240285172,-23.67176503885931,-27.644619218912553,-49.719019404794686,False
2.2109375,-38.70025573136589,-32.878171900816966,-20.27949372934643,-25.652290681797318,False
2.21484375,10.096802908150778,-21.09606860390405,-30.07079868972586,0.2454851762330192,False
2.21875,3.5620835819411294,-25.035581990851234,-39.08464163186157,-8.698165274463006,False
2.22265625,-37.731402463512026,-44.029426796478184,-24.80140659422618,-36.62025708914693,False
2.2265625,-67.94232508643373,-45.51760083297638,-22.316682092155183,-63.276792065689634,False
2.23046875,-41.99389070245089,-22.310248904213328,-31.133823664402424,-43.35770765444281,False
2.234375,17.647328804846705,-6.8359375,-27.928008202144913,6.4095990338718565,False
2.23828125,28.299636289927793,-6.748213001774569,-18.582415134316484,6.518563651174887,False
2.2421875,-15.34137197080962,-5.091499621351202,-8.997749621351202,-22.34096630981886,False
2.24609375,-48.89867110321357,-9.818197207970716,-13.700931840232858,-49.71616750154357,False
2.25,-49.992756907472,-20.613769620892235,-23.949327276864942,-57.22867805672848,False
2.25390625,-25.340425348815863,-29.31121775748118,-25.957791416146502,-25.51970981733064,False
2.2578125,-23.088813046903685,-30.19733590021111,-31.351468799718518,-35.14364109732591,False
2.26171875,-87.72708768396977,-26.08284233293556,-36.89572767501989,-91.00909904534606,False
2.265625,-151.77850066163873,-36.3747122062783,-26.136283234916167,-148.69039514747277,False
2.26953125,-147.50641599351326,-46.83824668395447,-16.064276828605962,-158.73688474351326,False
2.2734375,-111.01681657118162,-45.031172075786316,-14.106015653683759,-121.85476599788888,False
2.27734375,-101.47321633467963,-31.32413412773086,-12.384522873829631,-98.76539336446668,False
2.28125,-147.93511590151144,-18.178930248745562,-18.195005105709214,-152.63506943382083,False
2.28515625,-219.4289204015207,-21.120427528915,-22.492581208692858,-232.85816375413071,False
2.2890625,-221.7613465782187,-11.081552231214049,-36.84446852817892,-229.13710645881778,False
2.29296875,-148.5433364864566,-7.821883381720113,-41.98280411827989,-169.615994025952,False
2.296875,-115.4223133834598,-20.06270628403806,-29.78769595788459,-138.2496261549994,False
2.30078125,-151.71251926710423,-28.38861988250413,-30.345539737087694,-151.23182772627135,False
2.3046875,-195.78046358692328,-37.06366025807735,-39.51014592384653,-196.51763620961327,False
2.30859375,-192.91011800264673,-32.6578312890123,-35.39114253449911,-217.36852352785937,False
2.3125,-120.65249816423939,-28.52602883865194,-16.052328260769794,-148.27881307558744,False
2.31640625,-62.65956317697815,-41.52165541238296,-12.508767010510372,-77.10388530957408,False
2.3203125,-98.37752703922409,-42.185862635387345,-29.04224687538245,-101.8869252730694,False
2.32421875,-131.75349652522794,-28.617088056881464,-39.79935916559574,-139.50892430275076,False
2.328125,-106.33553736155305,-41.15530893365255,-29.49308984327194,-111.54155009905459,False
2.33203125,-46.28886529915249,-45.74485987027292,-18.917477301584874,-45.50765115385204,False
2.3359375,-10.085020280659078,-24.24517653065908,-31.341255794474023,-16.385464953950187,False
2.33984375,-21.13514072847682,-35.08811236104541,-34.370934839167454,-41.12279742194891,False
2.34375,-54.20495550192755,-61.99450849421736,-40.03977959399094,-73.23931912403623,False
2.34765625,-57.92009995334109,-50.168732216069024,-40.45437943642149,-71.08397361859014,False
2.3515625,-11.758461509776023,-19.49252455480081,-22.425439175234075,-20.107649566275015,False
2.35546875,55.81294913986966,-13.748574178114675,-17.26580068802778,40.192460856229346,False
2.359375,71.0276358641607,-22.20910258322624,-36.19048233737225,55.98318885395631,False
2.36328125,7.9482100377860725,-42.097958863664175,-40.67715663627463,0.6451455605189084,False
2.3671875,-15.299260054613878,-49.009071717048094,-17.48675527398727,-21.175247732070737,False
2.37109375,32.96219655506089,-31.202190808396058,-12.025356321905024,26.46092339628848,False
2.375,94.25997334322604,-28.776055610160935,-3.1683005254864764,104.56810982629115,False
2.37890625,93.59331496297882,-27.05332693366785,-14.20431728827561,105.88929574677212,False
2.3828125,29.14403499059115,-15.892133858087021,-34.929186220626036,25.56578592573894,False
2.38671875,7.623924808854907,-25.532432617650546,-26.685299608819346,-1.610876655849929,False
2.390625,50.29960186941623,-30.27206306985069,-20.9969303596561,42.486265259760124,False
2.39453125,104.50402027492197,-19.037709738923567,-27.858326305382167,89.85689752769109,False
2.3984375,108.60857591826276,-17.170427187232285,-37.57945998997981,94.48741165402032,False
2.40234375,56.44019722953127,-32.18030993758414,-34.052492953356385,49.46550204228369,False
2.40625,31.41860672462061,-26.310985258459798,-18.06640625,7.070965055531759,False
2.41015625,47.77698016109785,-21.053375137690473,-18.27007340623279,29.767855298788323,False
2.4140625,79.35397958481214,-25.43651901542039,-33.714353257710194,65.67445558224208,False
2.41796875,94.46691471744585,-28.3203125,-35.00488341007833,80.51154855969281,False
2.421875,53.16301793308653,-27.8530062492351,-26.692927445386122,50.22317160154816,False
2.42578125,4.599991250917936,-6.064835000917936,-19.328329862386024,1.2162658344042592,False
2.4296875,14.720117020178069,-14.889709749036225,-31.186507302885204,12.970168650945418,False
2.43359375,72.73997608655274,-23.898675473625556,-28.578194650817235,78.47737509286776,False
2.4375,89.27933727129482,-22.9562104164117,-20.525680091941013,90.73097454029495,False
2.44140625,41.32104728230939,-27.368131195692083,-31.705772989077225,34.489173314924734,False
2.4453125,-2.336232464661608,-33.16697151128993,-23.88305439970628,-8.162740656743361,False
2.44921875,13.655919658701505,-27.732116153928526,-17.800663168522824,12.61577482483784,False
2.453125,64.34743680581053,-16.985500189324398,-41.42854701173429,56.418999516170985,False
2.45703125,95.63198330031514,-8.56278946694101,-34.901323086219556,78.11759002876025,False
2.4609375,56.39176350622629,-26.875696776327867,-17.544780129421124,43.599971985528086,False
2.46484375,-14.102609457226778,-55.93174771103598,-15.759275849804185,-4.64390068535063,False
2.46875,-9.939789203050422,-44.249420109992656,-22.85139517806878,-16.276390254023376,False
2.47265625,47.62530550073435,-14.575827290251514,-39.77282506425556,20.60830144460253,False
2.4765625,76.37206373913841,-12.040008107942723,-29.37718952698568,62.35915078861216,False
2.48046875,47.46036760108378,-23.295025270946226,-32.56850184972905,38.68555257398916,False
2.484375,1.882939425636397,-18.559527884438868,-43.90174904005018,-6.425102401021907,False
2.48828125,-11.854199415962915,-19.582704642463742,-35.06804204149073,-21.69700637965853,False
2.4921875,35.16891866050667,-26.322548399063763,-23.442459900104026,15.035309708114061,False
2.49609375,83.60527131012115,-21.922937733294578,-23.963070137529066,52.46713797270836,False
2.5,53.340199906682166,-18.170982457012606,-26.870408208144656,30.976368884622445,False
2.50390625,-2.1276178711296048,-25.085561264686085,-27.86692982422592,-18.04895696288704,False
2.5078125,-10.72079419593685,-35.01653618743116,-29.565605973106106,-16.081908387896217,False
2.51171875,37.87331913168523,-27.623775203463467,-19.020499804950436,32.52989325816913,False
2.515625,69.70052003656224,1.7907629688838576,-18.303704603169745,44.41100528928528,False
2.51953125,45.02594963397283,-4.9855723812037205,-27.65988827948106,5.206809415350958,False
2.5234375,-2.8999579782921305,-25.49582866425468,-38.70948060404173,-34.61553125191225,False
2.52734375,-31.140397156815872,-28.17245371234985,-42.475741470821134,-46.82901116058089,False
2.53125,16.234051829641416,-9.224637341665646,-27.726618433331293,-1.4729110573981152,False
2.53515625,66.00091262161914,-5.245482785919716,-19.22074830192143,37.837046127309996,False
2.5390625,37.679046417972096,-29.818620636244034,-31.47588460714723,20.28497554231428,False
2.54296875,-14.124090191083777,-31.593957252845602,-44.183432154932376,-21.046622089376417,False
2.546875,-35.606853936559176,-24.239569628870395,-31.116650396600782,-46.684641424320766,False
2.55078125,10.041616549764411,-17.039348381471058,-4.076500065016522,6.072710462305715,False
2.5546875,59.20277195072512,-34.273596933897316,-11.077578335347571,71.52244671513584,False
2.55859375,61.74543784802962,-36.68808228032064,-23.1399358726747,60.211394527903565,False
2.5625,4.282754224161669,-7.6905043847907235,-29.18539676332456,-15.42367586204259,False
2.56640625,-41.10603860069147,-18.50314636940093,-25.707102481336435,-65.75067669769612,False
2.5703125,-1.5928749062997185,-16.536785009484763,-21.77037598672133,-18.433588252279403,False
2.57421875,44.51702662550177,-3.077596552782937,-41.54246323804745,46.566544095620394,False
2.578125,33.77399157462367,-18.870208856015175,-42.08080836571411,37.94765787541304,False
2.58203125,-7.295056927701627,-33.21489729301799,-24.078821059233874,-13.22506568580957,False
2.5859375,-24.797648027322236,-33.39178047745074,-30.19527425498715,-33.35222079228369,False
2.58984375,16.019521210684125,-22.203859304246727,-27.28662151205483,16.162342430547056,False
2.59375,61.58558564588178,-14.29335645881777,-25.779050911761107,66.49947221882266,False
2.59765625,62.51942129558805,-33.337460607636764,-37.530488446181614,68.16050093317831,False
2.6015625,33.47890739735038,-36.567969036837596,-35.716718711754986,33.225235398054096,False
2.60546875,-22.75620095077102,-22.05560012161914,-37.539750910231305,-16.51079035231306,False
2.609375,-15.435149365897686,-12.453711582884592,-36.11225580559295,-0.03627300437522951,False
2.61328125,45.58960902123363,-18.262710730020807,-35.23011068106719,55.690834008995225,False
2.6171875,68.25957941959369,-22.507070546750704,-26.321054453249296,75.3723152000979,False
2.62109375,24.00494647764682,-23.78797404987949,-25.624274366586327,36.77035378762272,False
2.625,-32.591921888385755,-30.722607248577287,-30.21756392653898,-18.493226569192878,False
2.62890625,-21.199479533181375,-27.295854097188226,-25.438520902811774,-12.38304794586036,False
2.6328125,33.64037306097785,-23.917684063685595,-28.994829035231305,44.33397744309142,False
2.63671875,59.28039737524477,-23.4375,-40.05776670159711,66.70010914170543,False
2.640625,43.63806760379696,-23.64964030565414,-40.654986480387954,30.74122181342553,False
2.64453125,7.0889222842216375,-33.369192016736015,-24.532681797668584,-14.45670449417146,False
2.6484375,-21.028243463927303,-39.54062241846163,-29.66414663902827,-25.357190492672256,False
2.65234375,14.577654347310611,-21.081965755415492,-42.75317361897259,12.236491861461266,False
2.65625,59.578080542892984,-8.187517209202717,-35.47264836244875,44.73825041684513,False
2.66015625,28.28493586311345,-19.716618796658917,-30.458806296658917,22.50981940704932,False
2.6640625,-27.54292285598458,-24.829917256914698,-35.7169577430853,-31.19627770851181,False
2.66796875,-31.314650880634883,-23.04256494129101,-37.48564082045079,-40.42685254159783,False
2.671875,4.172291870640069,-25.395644657936604,-34.652909776190185,11.46890250198874,False
2.67578125,55.57370865714111,-26.359658013095093,-31.723222276190185,57.45906827499694,False
2.6796875,43.23754073093868,-25.41070363174642,-29.800215223809815,36.512035705543994,False
2.68359375,-25.09058092262269,-27.49433973809815,-31.287647434524537,-21.171781777781177,False
2.6875,-38.79030307260433,-38.94202820952148,-34.081804170236204,-34.118316205941746,False
2.69140625,10.705498435874686,-30.83715839732607,-27.84081511388668,1.7144070664810622,False
2.6953125,61.61134127172317,-8.380856745655366,-28.530510676095336,41.461687341283195,False
2.69921875,40.971045656896344,-12.96174279655183,-38.58548310144107,14.626386859778485,False
2.703125,-23.42495085515849,-45.17226031850447,-39.16265412740179,-48.727940993681926,False
2.70703125,-40.773874688303145,-53.79217827339065,-42.899879097953125,-62.62256331461877,False
2.7109375,-14.31754874984703,-22.61859889363948,-40.136611192483024,-31.67025112051031,False
2.71484375,26.902626697686117,-12.820084569919517,-27.70627672283702,16.86879087022133,False
2.71875,28.226193913688654,-31.259860042375475,-23.954465009637744,24.798365121313182,False
2.72265625,-23.125613077846786,-36.63184950169798,-39.60456000848988,-31.923280179205165,False
2.7265625,-62.762067974773586,-39.052371047377925,-51.673404561482684,-73.44685807658182,False
2.73046875,-29.764001977267164,-37.53745023367703,-39.522993857850935,-32.14983344296904,False
2.734375,23.525786795187543,-31.314743649804196,-36.63286532269167,27.014384981337574,False
2.73828125,30.093267634775426,-36.64953847830743,-37.57632270376943,39.391944931005995,False
2.7421875,-15.822738668002692,-38.55748655687798,-36.099348113755966,-5.306435775149921,False
2.74609375,-54.46382643265818,-37.63614029418064,-34.1796875,-57.01106380415494,False
2.75,-17.911941704781864,-39.31152552889616,-34.25581432035122,-25.648314884430643,False
2.75390625,31.73828125,-28.445564917084813,-37.56135336670848,27.29534615561131,False
2.7578125,30.643099452331416,-14.587544268602374,-36.15952425116265,24.388934331400684,False
2.76171875,-9.147334078029642,-30.312517028116826,-37.48407871076722,-12.174166984524847,False
2.765625,-37.51118179671607,-47.98179921352804,-50.03856868461203,-43.79288247420808,False
2.76953125,-11.707037464814587,-33.471736457440954,-44.53757237868682,-22.371240993299473,False
2.7734375,28.679405221272106,-19.25871120280854,-23.27655212667503,20.822268851725504,False
2.77734375,44.72395705849957,-33.98795449417146,-21.502929807015665,34.0188791725309,False
2.78125,9.153884067892541,-40.946604703371676,-21.484375,-0.6216009744829236,False
2.78515625,-55.65961081388056,-46.830542892981704,-22.938104473245428,-39.74268178654469,False
2.7890625,-45.9498889938502,-50.76164943091421,-24.892543465457106,-19.634152987700404,False
2.79296875,12.548317226794346,-50.78125,-29.285850354509577,34.53199812228477,False
2.796875,35.642917887245304,-41.990454628893104,-29.2968152458239,58.103287722572354,False
2.80078125,9.150597387100722,-13.738385467660017,-28.342900960714722,22.305328103965245,False
2.8046875,-40.0415723289683,-39.61854663214417,-37.04913910476074,-38.09597681587321,False
2.80859375,-40.103018953638745,-52.580740159938166,-25.4198887790594,-39.68789715128723,False
2.8125,15.072675201780719,-32.60333365538974,-29.22510906564005,5.974746287680603,False
2.81640625,44.45119243169441,-33.66747323805226,-45.62719669792559,27.969294991433117,False
2.8203125,9.28872692054702,-43.80351584011503,-31.93409568507924,-2.0160162703451014,False
2.82421875,-40.93764102848489,-46.35923014701383,-25.462095367764043,-44.443573308040634,False
2.828125,-46.3439945140886,-42.51464813872912,-30.2307132640886,-45.88989265281772,False
2.83203125,1.1691022365683494,-37.14257047599743,-27.847120102726105,7.965808719480478,False
2.8359375,45.73530859924738,-28.352579755093924,-25.39958812641498,44.300939479058314,False
2.83984375,29.802904326275854,-32.222259936054336,-28.804829006547546,25.899343428741894,False
2.84375,-25.398184365821198,-38.077003704029494,-31.244502279402766,-40.07823375925529,False
2.84765625,-30.555865613335985,-31.6955570140886,-27.310735817704828,-67.6322264310408,False
2.8515625,21.306475932413413,-21.116446024813364,-18.99229410797332,-7.39760136840656,False
2.85546875,68.6281347254899,-39.589520342560604,-11.363903402153195,55.91990919463637,False
2.859375,44.32650866080469,-43.87804258926976,-26.13548002970695,30.18877571438144,False
2.86328125,-18.214277006715825,-32.86259499105067,-42.750335121925104,-22.737287596759884,False
2.8671875,-26.772290936868995,-35.13025693339656,-18.81461816603439,-19.5728389065655,False
2.87109375,30.780661982927427,-30.312877669501898,-19.03902473304981,35.19885733462856,False
2.875,66.21049531909685,-19.591063930275958,-40.89327832443554,56.03815351947317,False
2.87890625,37.68579365974729,-18.070887813207488,-38.581688022012486,6.50002939905464,False
2.8828125,-6.814185648941383,-30.755503935411824,-33.693796563303145,-31.23159458756578,False
2.88671875,-32.670473559310366,-34.11954124150961,-33.7121123389885,-44.90412692372415,False
2.890625,-10.513627776418039,-4.336270928302637,-43.92290468396255,-35.88184496038059,False
2.89453125,39.16647862868682,8.203734529892301,-39.0625,18.627472540080774,False
2.8984375,53.25304124854678,-5.309726211145445,-39.05305884017622,28.26100648022089,False
2.90234375,5.9351150922382345,1.08115039915087,-37.998780917374276,-28.20389933586976,False
2.90625,-28.030082539765594,9.6920455734617,-30.823034938781916,-58.820415511197155,False
2.91015625,-3.5688181675640926,4.912390817169431,-27.84977824030166,-23.65342171533684,False
2.9140625,42.806955668293355,-1.929281624801126,-29.778343857086035,34.951878212581086,False
2.91796875,43.4565532165912,-8.782370032276816,-41.98023666478003,36.1318564331824,False
2.921875,-2.980481657691837,-9.787287214309753,-43.43611600859748,-13.715199428619508,False
2.92578125,-36.14081955959738,-24.00585184597381,-29.7631368361072,-41.90410984442881,False
2.9296875,-37.772925972953125,-43.39894663673357,-24.46246634438869,-20.26579327805654,False
2.93359375,9.398345956602215,-34.42148277358808,-31.841357203772258,16.108799686792512,False
2.9375,21.96446992787432,-8.012228333613779,-43.014402190540295,15.065760665881417,False
2.94140625,-20.705790199333006,-25.200415818902215,-46.75715755415494,-32.94054908364949,False
2.9453125,-68.26113913449183,-45.595543581349816,-38.33681540835526,-82.0529108888362,False
2.94921875,-61.46729437683592,-27.500090156840116,-24.54315070289551,-53.75622082196811,False
2.953125,-7.788835898298862,-10.268965223809815,-31.262907691836986,-5.358186058163016,False
2.95703125,13.578658485284219,-23.958048505093924,-42.916763866793126,6.256232360567215,False
2.9609375,-12.071807549486019,-32.672597547497396,-28.772382719283485,-18.756865754833875,False
2.96484375,-68.90281272947007,-25.887391862226167,-23.03407487226166,-51.294988086678494,False
2.96875,-74.48065255384569,-26.959919049822552,-32.87976527603561,-53.78691493491097,False
2.97265625,-11.295242276892248,-36.105923120755065,-47.27589076745396,-17.060504449534967,False
2.9765625,18.216398409772367,-33.87767141414759,-40.777191248011256,19.240647660170115,False
2.98046875,-32.75971913625099,-15.578989284403109,-26.054314633941136,-28.86267127937037,False
2.984375,-85.90621868881172,-13.736230247659549,-9.859468933564829,-82.55081256118828,False
2.98828125,-83.27242018265818,-38.94597222647167,-14.323295132939664,-82.86570837412802,False
2.9921875,-33.22457674921985,-33.7537597327602,-21.00900065203757,-35.89612620846846,False
2.99609375,1.6062593397062357,-18.163528634882255,-21.664745143352757,8.456071466117987,False
3.0,-10.783447758596953,-21.635672573884843,-27.838335315578536,-3.5285737299608395,False
3.00390625,-51.57824021310121,-33.17300705238037,-28.3203125,-49.30887676309509,False
3.0078125,-70.41067611133207,-30.89864544453283,-28.28517704445328,-47.949738611332066,False
3.01171875,-21.54012564630117,-11.878891191947623,-26.487293393960716,0.6005294698035857,False
3.015625,22.13515773190357,-19.87949733830998,-32.12545843403904,29.060965512757754,False
3.01953125,7.204344537847264,-34.84240186329703,-27.85695026618529,17.809477448828172,False
3.0234375,-35.422215837820474,-41.46276549975525,-28.959443167564096,-29.968840587330966,False
3.02734375,-60.522555050327355,-39.75523016352567,-34.07511769182525,-51.98275709592792,False
3.03125,-26.917347985635175,-30.81021223113756,-30.63240280029984,-10.804066735635173,False
3.03515625,27.937108968671602,-31.75626725700606,-26.785795380667565,44.27682866900202,False
3.0390625,15.266355435048645,-18.76331920585266,-24.883700447056842,37.951012570366515,False
3.04296875,-44.19557862034359,-12.63887146525769,-24.567416077542948,-15.798589331572112,False
3.046875,-73.97883698295907,-35.136531121887046,-28.340031378112954,-43.76784259698342,False
3.05078125,-38.06442599660405,-32.095730731429356,-31.277068641773237,-17.167583933105917,False
3.0546875,16.590089698188827,-18.089351853622347,-34.08790508551061,26.866941551811173,False
3.05859375,15.25604783967142,-20.172681203343938,-26.214037546656062,27.477001812702685,False
3.0625,-10.458576826581814,-30.85996062675927,-15.649560469189817,2.6431486927854606,False
3.06640625,-22.319320102643335,-36.34730011511044,-17.259784626828,-13.914686094581779,False
3.0703125,-14.230098513124885,-22.140953886985255,-25.996233574772074,-0.5155590313895858,False
3.07421875,26.91417722801811,-8.085994864009056,-30.94083189285933,42.61052371428134,False
3.078125,47.63456520949336,-19.698770832695956,-18.59403562496176,66.50403770918741,False
3.08203125,2.7165313111920204,-43.38532185090564,-20.679257721668094,32.78918249372782,False
3.0859375,-52.42245820075873,-40.45417476136572,-42.0125935511381,-28.751020601327784,False
3.08984375,-41.03224500347777,-23.160856429068254,-27.22992465444267,-9.863697472695792,False
3.09375,15.178666181622102,-15.143172201018785,-9.807572431622102,58.13773600509393,False
3.09765625,27.630510291103224,-17.14093357056538,-22.514865643930122,67.6156446471731,False
3.1015625,-7.096003587382206,-25.899223913076735,-31.770789510922775,23.63320690169502,False
3.10546875,-38.000847553233804,-28.34158498669155,-35.59135003327113,-11.028380126430276,False
3.109375,-29.48826762604785,-30.266894417717065,-30.624314022058375,8.070130130254544,False
3.11328125,28.786395073578902,-29.65309952081931,-20.531116628678944,63.28346687993331,False
3.1171875,56.88875421625467,-21.430416978981828,-21.97265625,80.76957044873951,False
3.12109375,16.993520018127025,-18.93275217218381,-21.942002357660773,38.72312615684085,False
3.125,-33.260339623615614,-36.51810742749189,-20.713785145016214,0.10298632250810744,False
3.12890625,-34.56776099668053,-31.59316823334149,-29.30954288533317,5.331954764654592,False
3.1328125,7.095838288946338,-7.895857075659304,-29.465620793306,41.54152150385486,False
3.13671875,48.61296150238745,-11.093909873806275,-18.627962994542973,75.29256906548432,False
3.140625,25.781656328397478,-22.454454171893165,-20.997019939729547,46.79905244217708,False
3.14453125,-25.42934570611271,-19.006399194226887,-21.45856119592486,6.842390951018785,False
3.1484375,-33.96361639922291,-10.823214162791409,-15.675641664244631,8.459458464633176,False
3.15234375,-2.552376545098519,-22.456336146891445,-23.055049871496756,31.549087952056052,False
3.15625,36.89270635746191,-21.978512159257786,-34.16211977222664,62.77161260746191,False
3.16015625,18.264073064538334,-22.432614020528668,-32.644035051321666,44.157141054274,False
3.1640625,-34.77594454621244,-20.5078125,-27.83203125,-7.8125,False
3.16796875,-40.01489193576761,-20.55546645543964,-27.689069383681087,-6.821297726855534,False
3.171875,11.006808868858228,-22.518988682081012,-20.540079755093924,43.23764379244937,False
3.17578125,44.12209522999143,-3.465891599232087,-22.22425120846846,54.57674563459891,False
3.1796875,30.708238762390625,-5.688029900033653,-31.949243368720552,29.7844989540629,False
3.18359375,-7.104901556368177,-17.1599590561452,-21.860471760167677,-6.184431301284338,False
3.1875,-32.62407715650431,-19.50197045371107,-18.07079818194334,-33.575752042158726,False
3.19140625,-2.1160447611362665,-9.789825441320444,-19.542005751697975,5.189351423392278,False
3.1953125,56.66410839120724,-14.214950829483572,-21.562652970690817,60.37466346448021,False
3.19921875,59.11809289527626,-21.011510327433765,-31.244861140855413,38.57430838126415,False
3.203125,16.43610318637949,-22.52457569754635,-30.62171471539803,-7.228761453680475,False
3.20703125,4.133913410940464,-27.207151953435723,-20.20166197875237,0.23525219130514594,False
3.2109375,19.048256994584836,-18.713334837545126,-31.958624774368232,15.577405798736462,False
3.21484375,45.86832139524567,-27.26344038732179,-43.73449976671969,39.5909360563391,False
3.21875,43.01437231345224,-23.099590134155296,-33.44360568171388,39.98331185369883,False
3.22265625,-18.038921010768476,-9.276088989078561,-22.94921875,-24.938552565161526,False
3.2265625,-53.3508289577342,-28.119389082864224,-23.08605581326868,-43.78612737486998,False
3.23046875,-23.025140618479103,-37.824461187622965,-27.773925402805105,-3.043570302718655,False
3.234375,6.331224856981155,-29.26401221396231,-25.91505531464146,41.068205457660305,False
3.23828125,3.6911349660405066,-24.503693764149787,-31.25896312641498,48.38445024245854,False
3.2421875,-20.073369762665973,-34.28240492871566,-32.24368207145261,-0.03101241739582694,False
3.24609375,-65.89717429671725,-42.947955546717246,-33.712200703282754,-43.55021788762773,False
3.25,-63.36016136495748,-41.25921289887108,-34.805522863381874,-14.77562426382855,False
3.25390625,1.0797579621244568,-26.98680842906749,-14.253970306476779,64.23690451378266,False
3.2578125,5.265806891712048,-34.27475639417488,-19.371766103989476,76.95829971165024,False
3.26171875,-44.62833260990944,-60.36940509698342,-34.1796875,22.828664699718534,False
3.265625,-91.52269296296579,-52.71346103836505,-34.140518637566544,-41.054793862433456,False
3.26953125,-79.67223971717449,-33.951201511257956,-32.65772225281449,-40.581178968581746,False
3.2734375,-16.75787942467723,-26.336234836780275,-30.746242418390135,23.15737242244386,False
3.27734375,6.814876792818258,-25.227338795914093,-30.485709565311677,43.061989635678394,False
3.28125,-36.8313686956954,-20.636672380759347,-36.64822214594933,2.888965028987946,False
3.28515625,-86.20158358127333,-29.753128011610475,-38.33400696207857,-34.25960871053356,False
3.2890625,-71.95072049195375,-27.56430266398458,-23.87962114896286,-8.731638736768035,False
3.29296875,-29.865640200532305,-13.881001820239844,-21.67258913821586,45.329672299467695,False
3.296875,-11.801419902634155,-23.635585093771034,-30.075352406228966,63.38224053302637,False
3.30078125,-36.13490389616349,-32.08596092363703,-21.689361701110567,38.64938950353362,False
3.3046875,-72.3925428700361,-44.978282942238266,-11.399692576714802,5.201869923285199,False
3.30859375,-75.5566161257878,-46.07799879918008,-17.427036565731505,0.38535468166799247,False
3.3125,-40.262513241525426,-21.451271186440678,-27.914790783898304,28.287208686440678,False
3.31640625,-5.487189010493148,-20.82777653496696,-30.237885940559227,54.42919850174376,False
3.3203125,-23.210822532965185,-29.202015245441473,-29.429678656381938,32.410306591507066,False
3.32421875,-66.05651566341368,-26.558582506970676,-32.239825761153085,-23.298953086586316,False
3.328125,-68.32896012436517,-19.6800080214006,-20.91599327693814,-18.566279810163373,False
3.33203125,-25.22714757709251,-25.92957469101811,-17.84413431534508,42.67621145374449,False
3.3359375,17.31472859175182,-27.679538592593158,-27.998386876262007,67.45828202441412,False
3.33984375,6.807076232943768,-22.581640935721715,-33.570702814278285,34.79545428470905,False
3.34375,-40.38163319158049,-26.67713241142997,-29.197892207290582,-22.68931796105366,False
3.34765625,-48.50410798009851,-35.62699339931469,-12.259644802055925,-27.490476379413206,False
3.3515625,0.7875118545031816,-34.38702180463779,-14.253486562347039,21.840368598568283,False
3.35546875,31.91652795730588,-14.99701348627853,-28.868467434452057,41.83114999541088,False
3.359375,11.997353846065593,-12.587247072523404,-29.913328957734198,13.865747424355993,False
3.36328125,-14.922021995273205,-31.850320330187238,-22.062287514149787,-15.101284523572783,False
3.3671875,-29.745509354157743,-33.16347810415775,-24.162109016474943,-34.17168044040262,False
3.37109375,-7.2998046875,-13.18359375,-28.759765625,-22.119140625,False
3.375,39.84333769618491,-13.682660628786024,-27.591102411965366,21.897395865202228,False
3.37890625,45.95284367733892,-27.23314502003916,-21.21730370992168,30.917288747475983,False
3.3828125,-3.7978858016429053,-24.276448632442023,-27.22899210480022,-29.05409378250627,False
3.38671875,-34.14894585742474,-20.97521094323605,-35.506328297081495,-67.8612349141887,False
3.390625,12.638456401440983,-20.81692085296457,-21.903879193309063,-21.651626938903505,False
3.39453125,62.47559041906321,-27.94965734565257,-31.414234353010464,25.877800797742154,False
3.3984375,49.79318482110078,-39.769242517821084,-44.06565741066512,14.02830866043566,False
3.40234375,2.02733514592511,-34.41044400850465,-36.64583046530837,-27.167545716317914,False
3.40625,-21.33227074473781,-30.431935452104877,-27.026754095790245,-57.707625445527135,False
3.41015625,9.418632499388117,-40.2924202066634,-4.854638405968917,-31.47497447301597,False
3.4140625,60.83447184956862,-19.478845587560425,-5.452897217080707,13.4596879206694,False
3.41796875,77.61140665591604,-4.6295185835744235,-22.120406229704198,22.760675361265278,False
3.421875,30.37038865072202,-23.677233754512635,-24.27304264440433,-19.307380979241877,False
3.42578125,-15.226523781662996,-31.78425927519273,-19.791792142758812,-60.483419947687224,False
3.4296875,-1.4592268574466134,-33.087470792158726,-28.162471843832222,-42.036136696521446,False
3.43359375,41.84054068006608,-29.749664441079297,-37.10077092511013,-0.22263043777533031,False
3.4375,75.5994001158753,-28.65705715941076,-23.622708068821513,31.767740058817232,False
3.44140625,46.876195083522,-24.68050637122927,-16.778793386312184,5.356394222679434,False
3.4453125,-9.615890196708271,-19.638203430922662,-32.20517181381547,-62.98828125,False
3.44921875,-3.9986000791623324,-22.650268606972404,-31.512410464342533,-60.187483507847396,False
3.453125,46.31474484488772,-36.240101123187294,-26.950716906703175,-0.5602551551122805,False
3.45703125,82.48206767391703,-27.707033162016643,-29.058948429087128,34.85600363665565,False
3.4609375,70.0782337526005,-7.717699999617573,-33.1405325005354,8.712188752447531,False
3.46484375,21.169806971694484,-15.524864196777344,-23.012565843986742,-35.35238901774088,False
3.46875,-9.267066031710824,-30.968438322217462,-15.697959849017929,-29.166879789894757,False
3.47265625,11.016847570443003,-39.089269870892736,-18.621612177231842,14.34754534624916,False
3.4765625,37.267833379221734,-40.068280504313506,-20.952266743529737,19.579020540794787,False
3.48046875,9.098469623845071,-41.69523912187175,-19.562859959156825,-27.726415743743498,False
3.484375,-40.36261156617107,-62.19903663041483,-20.47375470356094,-68.3082883053414,False
3.48828125,-47.858404353163436,-66.81783676497584,-18.948049241265373,-65.34540423461115,False
3.4921875,-9.14532497590859,-52.09050339574156,-4.12018673710536,-23.64023351459251,False
3.49609375,15.451683012222357,-49.867578770345105,-10.103146463700055,17.543079175717434,False
3.5,-35.6454275626415,-84.66948650607294,-28.80859375,-7.733056822875238,False
3.50390625,-97.84431476191568,-87.06588857149413,-28.27744150185083,-58.244030206038914,False
3.5078125,-89.82937912064799,-50.926990435507555,-17.14090369347733,-58.82475964480206,False
3.51171875,-50.61422393825971,-53.95819050177883,-9.01159020160095,-14.326834883634746,False
3.515625,-20.49872986523282,-58.51574092310163,-13.517918365278712,28.208870961573762,False
3.51953125,-42.57403806442731,-55.31183318419603,-27.88150468061674,22.052243942731277,False
3.5234375,-102.76965386556935,-60.763902167594686,-29.36466611278529,-31.928209898733403,False
3.52734375,-109.22792409485132,-68.25585722398128,-14.781531783452643,-54.584519978661895,False
3.53125,-55.97081056300863,-64.6696741341859,-18.995016023679863,-18.277248860368353,False
3.53515625,-7.633965446035242,-56.26204570484582,-17.629749449339208,33.237541299559474,False
3.5390625,-17.71445415277183,-45.880033213761244,-19.190203039910052,32.30245030364682,False
3.54296875,-59.77143275055066,-45.84197325853524,-22.694054154047357,-16.841938842235685,False
3.546875,-86.49539486515634,-54.923708258122744,-16.705684151854005,-45.35700491035917,False
3.55078125,-52.53002822136564,-26.527976149504404,-18.954776982378856,-30.336892552312776,False
3.5546875,3.4877018735085357,-10.2536074791195,-16.950377502982928,31.435656225142264,False
3.55859375,2.4321972330884103,-30.14204196848227,-14.112571487535698,52.61756283280283,False
3.5625,-46.15360209595264,-36.83795826258872,-13.136390839145864,11.015157750933064,False
3.56640625,-75.27511420218136,-25.917895849905157,-11.43841328282751,-37.161361133206874,False
3.5703125,-41.257495105237396,-27.528618109092022,-19.09985124510524,-36.943627057329905,False
3.57421875,-0.534530982301291,-33.5218238982286,-20.74942851105978,34.52390143142324,False
3.578125,-3.151242428414097,-28.619841857103523,-13.68280934517254,57.762202012206316,False
3.58203125,-38.53630472526464,-37.5552905391452,-28.18876368131616,-8.804658339962064,False
3.5859375,-74.7423438073605,-49.44982916131302,-36.66369587080886,-46.0408229893233,False
3.58984375,-37.40370606185756,-51.924157947870775,-13.30727732654185,0.8847857011747431,False
3.59375,11.606382271844215,-32.38795852964572,-5.719430719574129,54.42497002730527,False
3.59765625,-2.439882611738253,-15.555450394640236,-23.948456572366005,35.750379296301396,False
3.6015625,-23.65452716759469,-34.84809771385303,-24.079857393073485,-13.687082437817415,False
3.60546875,-47.02175517323633,-47.60697054460612,-18.09176810632715,-42.04020323029101,False
3.609375,-48.105532085551275,-42.751258106950566,-27.995150169787077,-32.508794081543684,False
3.61328125,12.088239947913479,-34.94920177981399,-33.336466443966835,9.913038552438353,False
3.6171875,37.74129650024474,-28.41639133627019,-21.796511716837983,45.12980680983847,False
3.62109375,-17.25977422907489,-31.353248898678412,-16.8424765969163,20.206669878854626,False
3.625,-61.79086731513492,-34.12447464128373,-23.71356429358135,-42.11124769587897,False
3.62890625,-54.28767939496145,-32.87186811674009,-30.722462658314978,-55.67401096159141,False
3.6328125,-8.620356906586515,-36.78767819995105,-29.76433319375612,-8.132075656586515,False
3.63671875,15.614543019182525,-39.778683677644864,-29.230816758321605,15.970707785825736,False
3.640625,-17.55416504145252,-23.972267154613313,-27.92500305922663,-19.530712245319382,False
3.64453125,-55.90796412291973,-25.36666504145252,-29.760718287291972,-48.46155555937959,False
3.6484375,-49.62892059100226,-33.71826575215689,-28.758549627516366,-39.60695017553387,False
3.65234375,-18.628242126764142,-24.918111712863293,-18.622956939211818,-3.4810406014531754,False
3.65625,5.624734707690895,-16.819442771429884,-11.196948708241557,28.963915226918136,False
3.66015625,-2.538650221411527,-23.487869688417767,-10.702782032014806,3.417490745839452,False
3.6640625,-43.97411401288013,-37.36784168871994,-22.116215658079913,-60.64263106720002,False
3.66796875,-54.92913110315712,-31.127033429698972,-13.427375871879589,-60.645164605512726,False
3.671875,-13.640565727484091,-17.499672567150025,-8.675297509789525,-5.477031422081498,False
3.67578125,28.79604614078561,-27.482669959159324,-27.02504072595448,23.58430702780837,False
3.6796875,15.343856601450163,-50.46069872231231,-20.31612110307165,13.965805792235209,False
3.68359375,-48.2853512756975,-52.32577106851138,-17.15562907259545,-38.64565049674192,False
3.6875,-71.47524512053353,-26.85546875,-27.370129854610255,-64.15102637053353,False
3.69140625,-20.65226822072141,-27.46215289994187,-27.61141883183932,-13.38320257526158,False
3.6953125,24.640516971059718,-37.07926073788546,-23.95458100067303,31.506568733174255,False
3.69921875,1.767040599892073,-29.30829301699844,-25.06073213964504,15.61042007060199,False
3.703125,-47.53255447335414,-37.4275465193649,-35.15625,-54.516553762083944,False
3.70703125,-60.75695782856094,-43.98546484948605,-34.730527544511745,-80.78957444245594,False
3.7109375,-33.015866870105235,-34.05433090889623,-25.97331207170827,-33.34628724608419,False
3.71484375,-0.2898973853484672,-21.79907036842991,-28.1296070469773,-8.09295622552469,False
3.71875,1.414324685282061,-19.205221287246083,-33.48323543808125,-24.412538861738252,False
3.72265625,-35.594938318343125,-30.9522332832385,-29.540208992979075,-60.497282068343125,False
3.7265625,-58.86002819268539,-32.9011757468337,-26.044086562729444,-84.41583350541484,False
3.73046875,-45.37953223474882,-12.29585583277244,-37.420514994951965,-80.41684154722205,False
3.734375,-13.877655791116005,-14.473487977239355,-49.00307452276065,-31.35826794236417,False
3.73828125,-5.772139240699952,-26.719476566324033,-36.3727705885952,-14.49714918318649,False
3.7421875,-55.946801960964265,-31.372847069260892,-26.078233984948604,-62.19790137053353,False
3.74609375,-91.04141122083774,-25.60499237804878,-28.576621321580063,-75.50702545068928,False
3.75,-58.85109548993515,-15.64041563417768,-25.407414896139255,-38.03969059746696,False
3.75390625,-10.313238516428047,-29.857095876162507,-26.166664754650025,5.365716203193832,False
3.7578125,12.501900066538179,-30.529946482654186,-33.46124724669603,28.93962664051028,False
3.76171875,-18.945396150728097,-1.2618114828071465,-27.85240617734337,-18.86461344759545,False
3.765625,-83.79024556029735,-9.020416513705335,-28.643861566171072,-93.00287949706315,False
3.76953125,-77.29044329950132,-34.5187924493667,-35.598998567811904,-84.44271940777396,False
3.7734375,-29.385813649122003,-20.140944306779247,-34.50003991334741,-23.326035404812163,False
3.77734375,-13.818861279368576,5.834190155791116,-31.023336402120044,-13.935016290381792,False
3.78125,-46.72813322167156,4.342279420200073,-27.04012773227178,-56.95616749648189,False
3.78515625,-104.1142057100465,-13.975198515127875,-30.935234260279003,-96.65211263498837,False
3.7890625,-102.59095582667952,-18.381261615501103,-42.107267001651984,-93.34318858411343,False
3.79296875,-47.265567300590845,-7.8125,-43.51126869460857,-45.044745891802066,False
3.796875,-23.31668444842144,-8.143756883259911,-36.690105600679146,-1.3164234581497798,False
3.80078125,-53.54423354900881,-19.441265716776797,-38.7025628671072,-31.34488382586882,False
3.8046875,-79.32826984412287,-16.747302935507555,-27.26278309138469,-80.45305257793856,False
3.80859375,-85.13630527640113,-21.361856558599484,-25.372610218199338,-75.73763809540198,False
3.8125,-62.43427442792462,-31.082489416987887,-38.12316207400269,-35.959774993881545,False
3.81640625,-36.62799493506792,-26.182020638307637,-39.042692702597286,4.341114285058737,False
3.8203125,-50.503081453820975,-10.295910865608175,-38.61622336560817,-22.11976203040871,False
3.82421875,-99.89805963771109,-12.27374270565651,-39.21782147691813,-69.06962943205458,False
3.828125,-124.31274951817181,-34.29664914303414,-31.735323599256606,-71.22748958906938,False
3.83203125,-79.87102969744248,-35.36713946058187,-21.923481571983604,-19.714086591409693,False
3.8359375,-49.86100236516459,-11.873444096457415,-21.125005497047848,12.30541048129283,False
3.83984375,-78.47988497505773,-15.64049640298419,-23.541927252945705,-15.078780706006869,False
3.84375,-102.32425938035365,-33.191234646506366,-25.366844293012726,-66.39358288974547,False
3.84765625,-112.43070134682452,-32.45313647209985,-24.675769777900147,-84.3631335467144,False
3.8515625,-80.32913693480788,-22.892097252814487,-34.222528622889136,-43.70804318480788,False
3.85546875,-40.30214403986172,-21.150847596977485,-35.25764663255629,-3.6965256745594712,False
3.859375,-50.17358721090309,-26.112291781387665,-23.45417039509912,-13.690696413821586,False
3.86328125,-103.39068666253671,-32.80417077750245,-24.354550982011748,-56.253620881516156,False
3.8671875,-137.64261254129957,-35.09906875229442,-35.60641041819628,-70.50029588457538,False
3.87109375,-110.76527510095448,-33.75217252890969,-33.99953968199339,-36.97619109076725,False
3.875,-75.88172647454724,-34.619989082384976,-18.425984879772393,10.522604338748165,False
3.87890625,-92.99427542217327,-22.292500783926823,-15.987327153695546,-7.577620705610622,False
3.8828125,-138.26748348017622,-9.146669362610131,-22.88916947733113,-63.17900491005874,False
3.88671875,-148.17515463592378,-16.23474280530159,-12.085569694698409,-64.65963863245072,False
3.890625,-123.49536240363436,-18.49822325853524,-9.935017724394273,-21.114399779735685,False
3.89453125,-80.55391839130567,-15.925963369585169,-17.214722336943222,15.01184016305678,False
3.8984375,-81.528420388498,-8.953246883603548,-22.01370234590089,8.830974925435914,False
3.90234375,-132.84560178811796,-15.242357669481155,-23.422651995762973,-41.2994399703255,False
3.90625,-164.20482573880324,-34.37220367566079,-22.836917647531205,-64.69869963748164,False
3.91015625,-137.95911104610255,-39.38401754848874,-19.47953592488069,-27.395075696738864,False
3.9140625,-90.89365626338412,-21.410642858235438,-17.882075895588596,11.930924096763338,False
3.91796875,-68.73472776707048,-20.51265229212555,-13.419130300110131,28.175656490914097,False
3.921875,-90.72979046209618,-43.04992108151309,-19.6051912685848,-12.419504099363682,False
3.92578125,-120.28296531793012,-22.11253221748042,-32.182526366709496,-60.26452391741618,False
3.9296875,-89.73252440689244,-5.160562792538546,-31.598196155699338,-41.80970941171072,False
3.93359375,-27.00521762729003,-20.29425480125803,-38.85896234832263,1.6409642294194624,False
3.9375,7.580293811180789,-15.950590538008566,-44.18955768201285,13.788500879473846,False
3.94140625,-23.033944987457172,-9.724875145313264,-34.02624816446402,-22.174852009911895,False
3.9453125,-62.20638594438326,-26.57691182544053,-28.516055203744493,-47.51600357929515,False
3.94921875,-50.440074530408715,-33.23610728707783,-35.03483694322075,-34.433029705090554,False
3.953125,7.300079539892315,-18.87925232501224,-30.93893879252325,19.602472619921684,False
3.95703125,48.05519227239354,-14.26555616740088,-22.060489514500734,47.67912249908223,False
3.9609375,26.33068216579994,-17.54009612075558,-23.945049613796268,-10.252890553303763,False
3.96484375,0.9964892984428536,-28.549545370242903,-12.486006428199952,-34.269432781142925,False
3.96875,2.2674724860805187,-21.8484050435175,-20.014571956834313,-24.099715013919482,False
3.97265625,21.53707495870044,-9.171137200578194,-41.1022035035793,-4.4060929756332605,False
3.9765625,52.42325404200318,-27.672915615057512,-32.38567813494249,35.33341029200318,False
3.98046875,34.26076676756531,-33.505308362161514,-25.71031146554038,16.83373344864607,False
3.984375,-11.56283101788118,-20.733818842159202,-22.70023833287445,-35.701324119325136,False
3.98828125,-22.10446589727117,-29.31572628908162,-31.51081102009912,-53.668873133871756,False
3.9921875,22.974403594208884,-45.66316982723018,-39.81947933874817,-2.653550471503304,False
3.99609375,67.1453187136739,-38.32104141174671,-33.017461618614256,48.7244641901193,False
4.0,45.575784691629956,-31.95374162536711,-27.417004137604014,17.038936306901615,False
4.00390625,11.757229334924132,-50.56232409446892,-16.12057081344836,-22.172342488069017,False
4.0078125,13.451395580947137,-56.65890865914097,-4.782790129405287,-13.931072756057269,False
4.01171875,31.864832851505138,-44.86021246328928,-14.364025024473813,14.645210971916299,False
4.015625,56.18899845136127,-21.89035494417253,-29.045818675435914,35.27935841427042,False
4.01953125,64.37559870021109,-11.237489436108051,-24.021740585230052,25.025220694520925,False
4.0234375,13.98798512642254,-30.802319228386565,-26.43297282259545,-31.084998938830765,False
4.02734375,-13.818409017851803,-39.70222114967705,-36.46638326243945,-61.721541680371985,False
4.03125,29.235929469530102,-24.91865564197871,-33.65878246604258,-19.510636070576357,False
4.03515625,83.72178753059039,-25.58318914423371,-32.76736124388192,38.297889501758945,False
4.0390625,74.27013544725894,-30.76171875,-33.955623049743025,55.61647121076542,False
4.04296875,12.749595847482256,-30.702117606231646,-28.300445452077216,15.809957734872125,False
4.046875,-19.03355861884368,-29.254753460538392,-27.895213559192413,-24.40465236884368,False
4.05078125,16.139093474669604,-29.187173045154186,-29.385783773861966,10.812454111600587,False
4.0546875,67.5666050997308,-47.03537039586393,-31.132888980665687,63.26576266519824,False
4.05859375,59.18480214451787,-39.09954532244249,-28.56242160731767,56.17719996634851,False
4.0625,13.226730986157847,-12.516758995487917,-23.590242859054758,-0.41933336838482704,False
4.06640625,-21.211912628487518,-18.875727044328194,-17.254396682268723,-33.505253504726504,False
4.0703125,-21.296280362824277,-31.92601738405531,-11.74692237021231,-18.591971824522762,False
4.07421875,35.38178622819114,-17.80553484171713,-12.293363848252293,38.23263558404281,False
4.078125,0.0,1.5009607295809115,-13.548557471703885,62.17673958970633,False
4.08203125,0.0,-9.527519177526921,-11.089696524718551,19.57307536404797,False
4.0859375,0.0,-25.2760533777686,-19.42543182895864,-21.3698033777686,False
4.08984375,0.0,-22.8045715910829,-37.71207149548792,-16.63218276804833,False
4.09375,0.0,-20.449197239812776,-48.91201473017621,31.276349979350222,False
4.09765625,0.0,-28.743824186245718,-40.868638720631424,57.13792857853035,False
4.1015625,0.0,-35.24760295579688,-29.508528267436525,28.667710643545426,False
4.10546875,0.0,-19.988879233204845,-24.70053636846855,-21.163604333012113,False
4.109375,0.0,-11.838848545337738,-21.54442427266887,3.595069291483113,False
4.11328125,0.0,-13.890399156852249,-22.39850202661364,66.97937179756806,False
4.1171875,0.0,-16.927919840614294,-22.16445541941997,79.05435958914586,False
4.12109375,-0.45282848597359737,-14.6484375,-31.997040384842055,27.103638098184817,False
4.125,-6.448754129955947,-14.906559746696034,-35.515470126651984,-17.320002753303964,False
4.12890625,6.52893932788791,-22.304988642621144,-31.772936551639745,-7.426392139317181,False
4.1328125,52.14004306553992,-17.936755554068522,-32.52962847009789,57.263635429412666,False
4.13671875,72.97841882915749,-15.239071390877386,-27.556402100923886,83.89388283735622,False
4.140625,41.91179809383603,-29.881557815845824,-21.058738337412052,45.41329296038544,False
4.14453125,7.213979040473569,-42.461647336178416,-22.857800454295155,13.180367221916299,False
4.1484375,7.183723998164576,-30.948069220327316,-31.342966121137962,25.20385630162129,False
4.15234375,55.93195395672724,-15.039086400208028,-32.641738988696154,61.669647022607684,False
4.15625,106.03930771613436,-13.593243315589818,-21.76783146720509,82.21411646666972,False
4.16015625,77.75872184727746,-20.64773965662282,-18.307574468491893,65.05746453426124,False
4.1640625,19.905527257709252,-14.508621283039648,-22.60075371696035,16.210077092511014,False
4.16796875,4.178078460197388,-12.601326799908398,-25.1276554928048,13.257957013474382,False
4.171875,41.89132862212433,-19.108544945775208,-28.88728518493025,71.07318387099241,False
4.17578125,91.1368812614714,-21.5416124961762,-31.75259062404405,98.18922190463445,False
4.1796875,83.31361566171071,-23.468450769395496,-32.53607019395497,81.82475220264317,False
4.18359375,17.066243738528602,-24.780788754206178,-41.94217937442643,29.67820936257265,False
4.1875,-9.660942088839942,-35.45945401408774,-40.06361996374817,0.5751286309196035,False
4.19140625,33.27966073340471,-43.22867873394004,-27.77494312098501,43.08334448608137,False
4.1953125,71.22847547265052,-37.29472111325257,-26.306600472650516,81.0214662108419,False
4.19921875,68.11306855116243,-30.530110029825636,-24.239273047950444,55.73492228127868,False
4.203125,29.092587971885706,-36.53881728386564,-9.697957536022393,13.88153957492046,False
4.20703125,-4.65861239102172,-43.87690234016519,-9.227007016671765,-1.3831399128173754,False
4.2109375,11.993184138674742,-22.789684861417033,-27.692573536160058,13.303692295337738,False
4.21484375,63.33341270046751,-11.196776245709552,-33.977648057462424,79.80870054888152,False
4.21875,77.77438394823788,-19.595780561674008,-29.972294878854626,91.52584664096916,False
4.22265625,39.18901398554604,-22.484836245793822,-16.780803093453656,34.710837125267666,False
4.2265625,-13.792952020877944,-23.29324119570205,-24.030696744034874,-21.277591102018967,False
4.23046875,1.1539617940834557,-17.980724004221734,-27.63210600985071,5.9911846472711705,False
4.234375,55.633113624197,-15.430733070128479,-21.30558250802998,74.97867036937902,False
4.23828125,53.139931654965125,-24.580467698390848,-30.994686027747186,66.32923157963167,False
4.2421875,8.028933016595289,-29.082861731416337,-37.25880190807587,7.576320644692567,False
4.24609375,-24.14231713472834,-24.1025232883627,-28.035302519273127,-23.407027234765053,False
4.25,-3.4526219314010405,-39.94170498432242,-21.036482630391557,3.100593405858061,False
4.25390625,41.69912912970327,-25.320571801391864,-22.506643851330683,40.99426549594677,False
4.2578125,55.17643850572075,-3.5001257150942244,-34.359895068526676,38.99557941752325,False
4.26171875,22.715226488271973,-25.045290695516627,-37.487358038895486,6.219148975653207,False
4.265625,-21.252138937748548,-17.94523960882533,-25.309847239216886,-16.072892369608443,False
4.26953125,-9.060104150734169,-12.285867237687366,-21.563210987687366,-13.24791124961762,False
4.2734375,42.150167875061186,-15.649856216348507,-24.939628074522762,26.186023923152227,False
4.27734375,65.76388158649434,-16.901252772254512,-26.31269835959009,55.768798753441416,False
4.28125,24.444832135209545,-27.698646375038237,-24.354913104160293,23.86752805712756,False
4.28515625,-36.82221400055066,-38.759385611692366,-22.301403611417033,-24.98211069429148,False
4.2890625,-26.125451686295502,-29.476503948072803,-17.749598501070665,-24.857384234475376,False
4.29296875,35.168557854083815,-21.435591685148363,-22.955372677041908,44.830462297338634,False
4.296875,58.69640139347773,-32.188919672356825,-35.80036060633872,77.74068465491924,False
4.30078125,12.092914738834505,-19.675956905781586,-39.1373329477669,19.127719677271337,False
4.3046875,-34.18754421267972,-23.32045589247476,-29.02084448608137,-33.43721321505048,False
4.30859375,-21.824729179671245,-31.16059352892218,-12.717664117769456,-15.4994245474407,False
4.3125,22.95755394754956,-29.00836961384912,-13.233336057957048,28.329454329570485,False
4.31640625,69.68850374732334,-15.181289910905475,-15.714142321810952,51.96752399434078,False
4.3203125,41.233342574181705,-17.680620746023248,-19.715867811257265,38.54981215585806,False
4.32421875,-25.569010177664588,-40.109657739460964,-26.666836358143662,-19.164232430479075,False
4.328125,-13.254991253059039,-25.243946447690426,-20.23954907846436,-21.853371635056593,False
4.33203125,32.181602984475376,-21.06196466809422,-27.97706676353625,29.914358844447843,False
4.3359375,45.155186505812175,-37.83562801124197,-46.39905647751606,47.94889014224533,False
4.33984375,36.414834954723446,-44.14296722038669,-32.82167767988253,35.510929087126776,False
4.34375,-7.745762752370755,-35.69191051353625,-22.891144797721015,-6.536904443254818,False
4.34765625,-27.917558886509635,-12.957840222545121,-20.991821849189353,-20.322268612343223,False
4.3515625,16.296733997399816,-7.877564335423677,-9.765625,41.50271131271031,False
4.35546875,51.24486793054809,-9.34424956340677,-10.47928700967222,82.22488329527135,False
4.359375,39.045621510783114,-11.07676994111349,-25.71325806821658,53.99115029443255,False
4.36328125,-20.92442738605078,-24.781266729122056,-38.37750219868461,-13.823154060874884,False
4.3671875,-52.340105441266445,-37.88602449143469,-31.13576399510554,-53.34522694249006,False
4.37109375,-5.291481053074334,-30.70944024357602,-27.31286087106149,-6.982048457096972,False
4.375,42.20812587952766,-14.376094629527655,-26.300744921683798,48.60561406326481,False
4.37890625,46.29231870411441,-20.988535771642706,-24.663326418629552,53.802141088635665,False
4.3828125,-9.178313322116855,-33.881102544738454,-31.32587851789538,-9.476898277378403,False
4.38671875,-41.438513306821655,-37.386271843453656,-33.02191276001835,-36.540614723539306,False
4.390625,-4.112794910523096,-9.38222937060263,-28.638195692490058,11.934973902569594,False
4.39453125,34.87613956191875,-1.695480757464513,-24.655215598996573,37.726478371267746,False
4.3984375,47.56558413314469,-17.122077183389415,-19.838826858366474,29.090449583205874,False
4.40234375,11.216823405990066,-27.34375,-26.218841865014063,4.038291348138951,False
4.40625,-25.734826686295502,-27.208244111349035,-32.57933786134904,-30.03902067719486,False
4.41015625,-4.464345461150199,-22.981661297415112,-28.190542310339552,-5.183010620602631,False
4.4140625,36.32407391473935,-23.908393848660058,-24.761810526798826,56.45079759774229,False
4.41796875,40.333285934154176,-23.456081274854697,-34.755707020495564,35.63320921918018,False
4.421875,9.57715351598348,-24.221976330682168,-49.059703846742124,-27.058309354925054,False
4.42578125,-17.585443990899357,-31.64731664882227,-42.52961054603854,-42.097790082976445,False
4.4296875,-5.091896652263689,-39.95335562289691,-32.49407908572958,-9.798097420847354,False
4.43359375,33.10953153678495,-26.576988614637504,-27.529891356301622,31.342757007112265,False
4.4375,58.935941228432455,-2.099454023647822,-21.33792647531204,41.1869596162965,False
4.44140625,25.17132413390945,-14.800194535790762,-18.58028903143163,4.61045641824717,False
4.4453125,-31.63121486884368,-26.09952154710921,-19.498000869914346,-44.19269439239829,False
4.44921875,-27.37451294926797,-21.12825723966459,-27.919017151311053,-37.32708878667647,False
4.453125,14.60763039155705,-15.156226101254207,-37.422090088712146,9.62728113528602,False
4.45703125,47.5877800933007,-16.28651728357296,-32.996400848883454,40.07750960729581,False
4.4609375,17.28185204624021,-31.337355260340185,-28.363990130170095,5.5631020462402105,False
4.46484375,-30.208940759788927,-32.995833253670845,-29.135648086188436,-42.595630831293974,False
4.46875,-16.671615698608136,-29.026371071046192,-26.290263411976138,-42.52632446849189,False
4.47265625,30.330346388421535,-33.63428824755277,-34.56012565960538,6.461474026843071,False
4.4765625,56.30159141748241,-41.07946452470174,-41.0529369168706,60.68533835844295,False
4.48046875,21.828457192566535,-33.82986960844295,-32.787734924671156,34.0806869455491,False
4.484375,-28.950582173447536,-36.16167023554604,-25.705759836723768,-24.21205835117773,False
4.48828125,-19.86478687098501,-35.450204573263996,-22.61896795656164,-18.29404180368614,False
4.4921875,37.41250071696238,-16.361798332823493,-17.546937136739064,24.820490545656163,False
4.49609375,75.88822333962065,0.7336547602050018,-17.85282356543826,49.86178182675544,False
4.5,47.14810291755889,-11.109391729122056,-29.505361683618844,12.987235679871521,False
4.50390625,-21.653996348271644,-36.210961398745795,-42.35022058542368,-36.34120956332212,False
4.5078125,-39.76058236463751,-36.835644740364025,-39.35869508068217,-37.86188675818293,False
4.51171875,0.998370105536861,-24.03930029252065,-27.377955079917406,1.7478945204955645,False
4.515625,48.769035351024776,-26.351623441801774,-19.96044160102478,45.80980302653717,False
4.51953125,44.657538699216836,-34.02923569046745,-19.28866288852178,40.90174050874939,False
4.5234375,-5.003501166258795,-38.9986903487305,-22.91731392436525,-13.218276804833282,False
4.52734375,-32.58456571199144,-37.259190262695014,-22.4609375,-32.253866817069444,False
4.53125,0.7154687022025081,-26.152785876797186,-22.4609375,4.8451122285102475,False
4.53515625,61.72851861234322,-30.280756490899357,-22.779537654863873,55.62134349189355,False
4.5390625,52.94979231989905,-36.03605245296727,-26.892033831064545,44.14779462373815,False
4.54296875,-13.220940714032391,-29.756352331835913,-27.161488734262324,-15.530939910524294,False
4.546875,-42.007094342688895,-41.32968439316305,-24.749899625267666,-37.35466575214133,False
4.55078125,2.081311897751606,-36.3816880640104,-21.461432204037934,-9.234445501300092,False
4.5546875,53.9099244321658,-11.622318560721933,-20.875554450902417,31.61161789729275,False
4.55859375,45.98946184804222,-10.70072317604772,-18.377777034261243,36.22383684804222,False
4.5625,0.7882105097124503,-28.70448483863567,-15.427536612878557,-8.871662540149893,False
4.56640625,-35.875811362419704,-43.36564842077088,-20.89425521948608,-43.05344118040685,False
4.5703125,-20.330543553074335,-32.82836279252065,-27.602663037243804,-17.746850145304375,False
4.57421875,30.34453626873662,-19.61169915302845,-31.8879471455338,19.572415589629856,False
4.578125,43.58787688322117,-29.066670331141022,-33.961999799250535,33.57023960882533,False
4.58203125,-0.5590812844141939,-38.845320147598656,-30.826245363643316,6.479099351866014,False
4.5859375,-41.39761657808198,-21.67180091388804,-32.30656355154481,-45.9055772503059,False
4.58984375,-16.40271022121535,-17.477657749200425,-39.57021532960199,-28.227306547619047,False
4.59375,33.3831721761242,-15.936370784261243,-33.18346828158458,33.501112486616705,False
4.59765625,47.546554756806366,-11.531353959544203,-32.71484375,50.60117295044356,False
4.6015625,5.7017627714897525,-7.45613982678189,-32.4290147503059,11.099414002753136,False
4.60546875,-38.46055034031814,-11.179982649510555,-26.89968142971857,-42.57725867046497,False
4.609375,-23.278931821658,-29.663571380773938,-37.03836585156011,-21.25479767321811,False
4.61328125,36.02676181553992,-26.834109245946774,-25.857546745946774,48.645628202431936,False
4.6171875,40.224098539308656,-17.897890218721322,-17.10785742964209,51.587802797109205,False
4.62109375,-9.632628479657388,-24.299677127944324,-25.851094084582442,3.816749197002141,False
4.625,-47.300995143774855,-38.139560310874884,-25.12982993652493,-37.50639291449985,False
4.62890625,-35.71070090241664,-29.5921738777149,-21.84007795770878,-26.240494273860506,False
4.6328125,9.847353710387862,-4.39453125,-34.574052424905176,7.938139969258534,False
4.63671875,37.47053595310271,-5.0879463489657635,-33.07704952746077,43.89725057952924,False
4.640625,4.8926408592077095,-15.426192308427654,-31.713157693484245,19.174411851866015,False
4.64453125,-54.506168266289386,-22.9111301238911,-42.72319038696849,-48.7258084945702,False
4.6484375,-59.07958177841674,-33.073362749296464,-36.30917445399486,-43.64008444344182,False
4.65234375,-4.617626041985316,-29.88645705873356,-18.747042530208013,17.150158209697157,False
4.65625,29.732788123279292,-22.21194244226063,-13.245670742199449,46.97591245411441,False
4.66015625,7.607568254817988,-26.60453191916488,-24.653498059421842,17.69731999464668,False
4.6640625,-32.357856234704805,-22.366537454114408,-38.58485369187825,-34.62608619799633,False
4.66796875,-32.25467339973998,-29.516265486387276,-46.34860025045886,-39.683240048562254,False
4.671875,10.016008790376851,-32.25974985279273,-29.52557200538358,8.496290902590848,False
4.67578125,36.468141776919545,-17.387084400810647,-33.85705443178342,26.184511461838483,False
4.6796875,15.861388469333129,-23.424445310110126,-43.38930817910676,4.964755324640564,False
4.68359375,-33.02760532924107,-44.828316824776785,-34.62608700706845,-45.77459426153274,False
4.6875,-57.57085664115074,-42.94676449895999,-26.541458441667686,-63.64375387135996,False
4.69140625,-19.24207517589477,-30.51257432509942,-19.41668538735087,-18.878366138345058,False
4.6953125,30.767603816151727,-24.858489551468338,-28.511771327240748,28.742812452202507,False
4.69921875,17.852213740822883,-24.387624512465585,-42.830197021260325,25.03453368767207,False
4.703125,-36.08113462391411,-33.42459307705249,-39.044577037195644,-22.57588343478527,False
4.70703125,-41.25954157425818,-27.609324812633833,-19.283151145227897,-40.79082742237687,False
4.7109375,18.912063369914346,-15.232702087794433,-6.709214400428266,9.99021346359743,False
4.71484375,57.557291268354234,-25.030231913429184,-22.53783171459162,46.71493815004589,False
4.71875,29.3666892111502,-17.800801563933923,-39.69241119226063,24.68328187136739,False
4.72265625,-17.195111284870915,1.3521083139606018,-33.48851831105469,-25.63103167441576,False
4.7265625,-32.5686431726063,-8.592196581523401,-23.385848835653103,-28.049360469562558,False
4.73046875,-12.770184038960458,-20.114147208803004,-29.91131086173734,-6.800991624172482,False
4.734375,35.937290885974306,-21.463463597430408,-31.759192652569592,36.80197738222698,False
4.73828125,41.001345499388194,-21.37139367925971,-32.248638966427045,49.947542252982565,False
4.7421875,7.859819516671765,-29.27363346971551,-32.18028855345671,10.208050531508107,False
4.74609375,-31.298451742781108,-28.34489683064664,-21.508780101018598,-20.33679756324177,False
4.75,-47.74177763650964,-19.429082861731416,-22.074823388268584,-23.940717966121138,False
4.75390625,8.712974868078923,-18.005434574793515,-24.37979767321811,19.699049068904863,False
4.7578125,29.509769926511073,-26.449692872109384,-32.08721146419613,11.958409884298911,False
4.76171875,-23.9596278487305,-41.91481531049251,-28.363808217344754,-23.717892035026,False
4.765625,-30.14468300703579,-7.955295006118079,-4.863693503364943,-10.673777340165188,False
4.76953125,1.684204362955032,16.648224801162435,9.03175426353625,20.552264167176507,False
4.7734375,5.272816170622782,-26.495635400097882,-10.54407901780252,28.937818311819406,False
4.77734375,9.392852399586975,-40.70867362399736,-35.45244550984676,36.0179468641506,False
4.78125,-12.183550732257572,-23.765838893774855,-39.40667181286326,11.422076944401958,False
4.78515625,-68.00680875267666,-39.85298089056286,-36.14261098577547,-41.05060678915571,False
4.7890625,-57.75585148889637,-44.171858749847054,-27.554524042579224,-29.553233111311634,False
4.79296875,9.977278267436525,-22.351003269348425,-31.60728624961762,26.95076499885286,False
4.796875,35.965939507494646,-21.453217010171308,-37.36846727783726,42.85917425053533,False
4.80078125,-0.2529527483788083,-37.99243937737061,-32.856674128991806,8.57315054141686,False
4.8046875,-34.117789748394,-58.21546272751606,-19.214860479122056,-9.982267130620984,False
4.80859375,-30.377098309880697,-42.48778774089936,-7.645358146604466,-11.610010706638116,False
4.8125,11.662412153584976,-2.174533333843142,-12.173754282393245,14.036607293068641,False
4.81640625,36.94378656508106,-17.694332651422453,-10.204525466503519,58.39374737113796,False
4.8203125,24.548911173141633,-5.7072296095900885,9.26751539079229,45.011316056133374,False
4.82421875,-25.923876053728925,0.35140898744525106,0.8757246730065398,-12.14389774704506,False
4.828125,-53.79066969065463,-25.454554144998472,-24.336540943331293,-38.455919958320585,False
4.83203125,3.5219816774746118,-18.790314717667933,-14.577104108038665,22.165029384100087,False
4.8359375,47.50807777607831,-22.91979341924136,-7.3277139415723465,67.8946937614714,False
4.83984375,-5.370765142245335,-29.880422625420618,-29.83671779405017,20.19058652301927,False
4.84375,-59.91043059081733,-31.480429558454667,-36.182160390921325,-40.329832699896,False
4.84765625,-34.53264210194249,-34.804191601024776,-16.431283936219028,-33.78341642130621,False
4.8515625,9.129927380934173,-34.719288166829806,-14.371467981463354,19.414272796096903,False
4.85546875,44.23111162626186,-9.890346579611503,-17.853319057815845,47.13504822766901,False
4.859375,31.44217578961456,-7.734918696466809,-28.994675359437135,16.042301974992352,False
4.86328125,-20.396899231845712,-36.17149622805273,-47.8223480706289,-32.976160547687506,False
4.8671875,-33.10639482639951,-35.46627647981034,-34.619603663199754,-44.01829329496788,False
4.87109375,4.561832907396272,-22.86377687161756,-17.658692874323513,-2.3998304081479254,False
4.875,43.65993160178954,-27.10828760706638,-18.621962469409606,41.26844385706638,False
4.87890625,29.200831915341084,-23.96058379856225,-20.470918811180788,34.11844696390333,False
4.8828125,-25.071178059617033,-25.09740532852074,-32.71484375,-19.736049721644438,False
4.88671875,-49.08641069516672,-33.35748102439584,-31.972787693101864,-44.72303743499541,False
4.890625,-11.780106276000245,-28.569830013841308,-22.03084613590481,-14.19241758304784,False
4.89453125,45.591726971168555,-20.255949592765372,-11.112259578617314,37.34579334276537,False
4.8984375,48.638739026367304,-24.287884841857334,-11.266553648446102,34.64383249342347,False
4.90234375,-3.954883947690425,-38.56206026307739,-27.83203125,-28.530531842688895,False
4.90625,-24.276047243040686,-34.06049250535332,-27.746294499464668,-64.59636810760172,False
4.91015625,-7.587746046433378,-41.25155093371467,-26.062915334791388,-28.511550513122476,False
4.9140625,46.294081236616705,-21.5770125133833,-18.51809254550321,43.95388617505353,False
4.91796875,62.9748799427718,-1.1333346888678575,-23.755549989648646,42.64625216269372,False
4.921875,0.0,-27.470226374189405,-32.23008734935152,-20.737077065872384,False
4.92578125,0.0,-35.95171975374733,-41.01702905131539,-52.52140730154481,False
4.9296875,0.0,-25.673389609843387,-61.08665489645785,-38.84628932537012,False
4.93359375,0.0,-15.908230011089017,-46.49438259980116,13.998660475298257,False
4.9375,0.0,-13.925694024914351,-21.018527325110117,48.2722443086229,False
4.94140625,0.0,-24.09405829382074,-9.773899940731111,11.882127800933008,False
4.9453125,0.0,-31.323245174660467,-22.461953134558915,-40.41442908433256,False
4.94921875,0.0,-20.662915360201897,-28.242761069899053,-34.60329276919548,False
4.953125,0.0,-23.13988920263367,-28.14251670898079,19.366328870595254,False
4.95703125,0.0,-29.28298385400734,-36.32893158267054,42.8270005640104,False
4.9609375,0.0,-12.803447708919613,-26.564877779732043,16.682693778294386,False
4.96484375,-0.5885432107915802,-9.840032519270679,-14.486796573895642,-18.890997906166618,False
4.96875,-5.124623139835434,-21.22813637510706,-29.219477672289855,-20.25653256148293,False
4.97265625,23.60024050226355,-24.72150105530405,-42.91450316591215,16.667847590771444,False
4.9765625,47.58918414461609,-22.59820592115326,-34.54285881576935,46.92539648019272,False
4.98046875,34.05828929860516,-32.451973628869446,-32.42287868591704,36.926441292976875,False
4.984375,-2.3560578540838177,-41.67460304183236,-27.38013584047109,-14.981406775772408,False
4.98828125,-5.484874692202986,-30.032164549048698,-14.405252766349566,-29.379738831365472,False
4.9921875,27.48540114936376,-20.72306728328031,-12.163239477548023,16.276828285589747,False
4.99609375,58.35598735278373,-25.621277770342612,-25.332282186830835,42.450565444325484,False
5.0,33.05472286797993,-52.32244557154655,-42.251413285360336,31.36082365334027,False
5.00390625,-21.687215604925054,-50.43140223501071,-38.29275127141327,-27.064582775695932,False
5.0078125,-31.14912359101615,-18.83801967033219,-23.60197305533464,-46.98164162868592,False
5.01171875,16.093090913141637,-23.0233080033567,-21.353050783106582,8.324365652106106,False
5.015625,47.60589842316163,-34.27276742016395,-35.93521183508198,35.503387917915695,False
5.01953125,33.324650122361575,-27.39154749158764,-32.39182232716427,30.44276011394922,False
5.0234375,-5.158288438302948,-21.72896369907011,-27.771152919674538,-15.38184513795424,False
5.02734375,-36.29441788128594,-39.785751292365106,-34.30634310381745,-52.81431141410743,False
5.03125,-0.17066691840012238,-35.73920015677577,-37.41205261547874,-8.930662568828389,False
5.03515625,43.39349434685856,-30.850825746742323,-54.90406913388597,29.275696032286188,False
5.0390625,20.246585317126513,-38.67951615647559,-50.2165571852441,20.179493693028874,False
5.04296875,-15.989187012465585,-40.47390017971857,-37.527005582747016,-11.41529567528296,False
5.046875,-31.331071535085037,-44.17807204361923,-48.603729505689465,-36.103777300256944,False
5.05078125,-10.987672347210326,-22.859484449559524,-44.70387202908969,-8.237991136975406,False
5.0546875,32.61106344639033,-17.700157970709697,-29.96828038964515,37.41151489369838,False
5.05859375,38.90510616295679,-35.76371000290144,-21.035820000967146,25.693352400383883,False
5.0625,-3.2507773786400342,-36.23058226209776,-21.881249139697786,-22.03861275312003,False
5.06640625,-31.371547559418207,-22.149555892878993,-28.615145238131653,-45.636702499847054,False
5.0703125,-15.46368346589171,-25.63723018315999,-33.50932768048333,-23.733844447843378,False
5.07421875,25.344503242383457,-35.73115890355439,-37.73632023889637,17.563786629756514,False
5.078125,50.52883494050532,-22.718789191545333,-32.02355507463599,44.455519507830665,False
5.08203125,16.2734028468186,-20.34858710614867,-22.699327489293363,26.856813054450903,False
5.0859375,-31.68394480109813,-31.390874487642236,-25.104096567967698,-29.97735015447204,False
5.08984375,-2.0422319967423226,-32.403342656460296,-14.66412009245381,-2.8527083747552915,False
