time_s,TP9,AF7,AF8,TP10,is_gap
0.0,0.0,-706.0546875,-530.76171875,112.3046875,False
0.00390625,0.0,-976.5634835967068,-708.0014042184257,-171.88388217632158,False
0.0078125,0.0,-992.6316088160786,-603.0068670549231,-317.3200411465328,False
0.01171875,0.0,-751.4511330080271,-491.2209224968716,25.50284444245208,False
0.015625,0.0,-706.6495846718196,-523.9827404411092,393.0703704427878,False
0.01953125,0.0,-956.0788303282566,-657.2488275527255,402.05376780727323,False
0.0234375,0.0,-999.9836077221815,-697.6942383587408,-125.69449610495636,False
0.02734375,0.0,-975.5541047338543,-608.8902954652973,-432.2566545980344,False
0.03125,0.0,-932.163540776462,-613.8630027431021,60.04142551657307,False
0.03515625,0.0,-972.640989348065,-723.0524904430167,610.4588043469967,False
0.0390625,0.0,-957.0451991896593,-628.8880087519839,220.1006273081736,False
0.04296875,-0.662995036293766,-969.7634948380505,-612.3845090048188,-327.70879637748567,False
0.046875,-543.1417034330556,-999.93711326146,-677.6729784685344,-386.49700718732834,False
0.05078125,-26.565963452646198,-896.814625045782,-577.101224858076,-23.241436389787573,False
0.0546875,404.21666715945855,-661.7299749248413,-506.90025876342935,268.5508127250946,False
0.05859375,302.7657308707728,-799.0060665860395,-587.9934555647967,263.38529068680566,False
0.0625,-196.03133035687034,-993.171156318673,-700.2191274626877,-49.516046575509705,False
0.06640625,-417.58424677066165,-999.919588426265,-722.9531290533632,-241.4885630779619,False
0.0703125,-85.8856972401111,-930.4321721248932,-558.0351266824869,-59.74265056540715,False
0.07421875,356.21932370513366,-740.948227761415,-500.7781144129227,199.1003011117385,False
0.078125,550.3918053160481,-908.8251754021181,-716.3786973698267,473.5888785137651,False
0.08203125,-48.95509839305335,-999.9736515306433,-763.9191452508851,109.77118083109511,False
0.0859375,-742.3603745727017,-983.2465463237089,-612.2128851407032,-561.9617043477598,False
0.08984375,-271.5463000118191,-894.5830775712194,-558.7099152458367,-246.43983307471177,False
0.09375,493.53905129295873,-922.8190143907948,-622.0396421663258,363.7188313106611,False
0.09765625,404.3431636571389,-897.4732771677756,-598.0890027450098,323.56269099659687,False
0.1015625,-257.7988786759095,-906.3930686118911,-558.6399492392565,-143.4494128464168,False
0.10546875,-567.6576662928035,-999.9597644089911,-588.8639686527193,-393.51346837232194,False
0.109375,-141.49736086100597,-975.6118090739836,-586.9557908451349,-71.97775903049079,False
0.11328125,489.68886630524355,-990.7128202829325,-611.2852044164326,381.3065240240813,False
0.1171875,457.3648979253144,-985.2790744033085,-587.9201925131241,358.1294088977231,False
0.12109375,-120.92671739561715,-948.3496081827616,-603.4266244010195,-28.925135056769626,False
0.125,-275.28546957026003,-1000.0,-795.1837501716824,-85.02853741911855,False
0.12890625,-226.60583522172374,-999.5401817051212,-691.9750918444424,-115.24245192234328,False
0.1328125,175.57654266115247,-801.7891981767336,-516.7503538563667,91.99210404330972,False
0.13671875,497.7642015339973,-815.4043067651455,-579.229806706043,377.65949587426024,False
0.140625,-5.743370200524966,-999.9878391679893,-630.2859679259248,74.0765159550116,False
0.14453125,-653.7947041722622,-993.8959776736663,-589.2106117804602,-463.56459738585033,False
0.1484375,-423.95205818505065,-882.7819190842083,-523.5213143617996,-324.78667277728607,False
0.15234375,363.2150211550788,-869.5788322358381,-559.5738892152973,271.2858076890795,False
0.15625,534.6317843135758,-849.3564416165609,-561.2529782116042,389.1226603513002,False
0.16015625,138.96741286699628,-941.0766459992828,-646.0682197724012,183.28384653680644,False
0.1640625,-476.16950840671166,-1000.0,-672.8891180106214,-294.22033210039984,False
0.16796875,-331.6217160984617,-999.8248899802375,-686.3217107572335,-215.37217987921193,False
0.171875,319.81837678168114,-938.1323632645586,-615.7216726532932,279.49743931029485,False
0.17578125,317.02743602925466,-660.905989138231,-452.9802622543035,183.21980441566964,False
0.1796875,45.50073103598242,-745.4424102919185,-563.4700651971556,62.62988644860526,False
0.18359375,-376.6844496499176,-995.9344753912685,-711.5456394151565,-198.83102090197693,False
0.1875,0.0,-947.559660803397,-599.966211962825,-375.58902539753996,False
0.19140625,0.0,-883.122601216274,-556.3712387261934,80.39213079714015,False
0.1953125,0.0,-982.4787447732267,-626.5011772162281,492.9746456190484,False
0.19921875,0.0,-999.9573774760407,-637.5838382065682,282.2452806433891,False
0.203125,0.0,-987.3318688770372,-604.63658856551,-291.96500612296285,False
0.20703125,0.0,-995.1344749572702,-646.0375836474484,-282.49761790761204,False
0.2109375,0.0,-999.974962992919,-657.8650657924857,192.3200411465328,False
0.21484375,0.0,-993.0624241736357,-698.4902327058662,572.66419030796,False
0.21875,0.0,-966.388712172659,-635.351192906086,289.88621753296303,False
0.22265625,0.0,-986.8695204721646,-660.3234614401478,-247.6545689438103,False
0.2265625,0.0,-999.7912517930172,-701.2791401052158,-390.7218336556949,False
0.23046875,1.560491691203393,-948.8887497044151,-609.513764006911,-61.198562265439065,False
0.234375,370.1746533924429,-755.3278154949029,-526.8810422643755,246.53875299490295,False
0.23828125,261.62897992583777,-745.5105127552188,-533.6935819523286,234.58532782648172,False
0.2421875,-229.8606487875412,-957.2122317940423,-651.4494519518374,-67.61759405330545,False
0.24609375,-545.8094070950586,-999.9640242053016,-670.8095561248626,-352.44001729222623,False
0.25,-74.07308826951838,-991.736207947366,-650.2840090781804,8.624473984403613,False
0.25390625,504.0269641412831,-999.9865873176352,-626.6995656913838,408.52950027087655,False
0.2578125,527.3015175315113,-997.0840820133675,-677.8996091604101,477.58510989859917,False
0.26171875,-105.27536892626053,-999.9511778361922,-712.4326266061836,70.68954540425467,False
0.265625,-776.9505497649859,-989.3097344837322,-616.5346898463253,-563.286579305793,False
0.26953125,-294.7782698808143,-900.5470466823343,-583.2448891122879,-222.88712697243926,False
0.2734375,509.79072161900257,-931.5529954752167,-630.0906792706935,410.27398354520204,False
0.27734375,416.45455962788355,-914.732732019712,-575.5093310409801,335.92385220233734,False
0.28125,-242.59280652009704,-949.4791189800403,-542.7057880596502,-130.8566032148416,False
0.28515625,-603.3608724514711,-999.9898659733244,-586.5169874900806,-412.93187048856976,False
0.2890625,-196.6256314094738,-997.1911458651264,-603.3478472465969,-101.00652941299903,False
0.29296875,289.5081587260408,-836.5983875690545,-480.1902132962245,186.31104022326335,False
0.296875,369.34971381508666,-779.817585135362,-430.20278545049445,236.36886974842815,False
0.30078125,55.310504192864116,-960.6737470527866,-610.8029737764772,155.1938853905964,False
0.3046875,-263.75836661859853,-999.7253548361869,-774.2665618037753,-30.948858954403956,False
0.30859375,-359.52629505707483,-951.8584255013125,-580.690279823129,-228.99514329752168,False
0.3125,114.5825782489928,-820.595358568093,-436.82090098889023,23.52274504791845,False
0.31640625,571.0622987501526,-949.0434313385118,-567.519919919729,441.43987112379443,False
0.3203125,52.675001526065195,-999.9087937599194,-589.2509094394762,125.19111582071785,False
0.32421875,-657.1834709719255,-984.7007195033567,-494.5018369030363,-467.27445786924017,False
0.328125,-492.83384226017887,-882.2537574586436,-474.7966458517733,-385.5436798010011,False
0.33203125,255.58685910030826,-793.8952384858381,-504.2474388333995,187.33082136643878,False
0.3359375,513.1664255165731,-786.4581147562874,-481.4293663109663,386.32745734647784,False
0.33984375,61.02353263481963,-836.5612410730636,-479.319025437954,101.0021523358817,False
0.34375,-522.4241569443597,-930.1596264192407,-526.9802961138749,-345.87945706415576,False
0.34765625,-296.46397580042117,-999.3290082102308,-616.9413623756257,-152.54273459437186,False
0.3515625,260.414619990691,-899.8167410305518,-509.2243487516787,243.93335434852276,False
0.35546875,351.7515294034611,-610.0069459811073,-363.33847744475645,214.17567919439017,False
0.359375,169.35204464122208,-768.767502060188,-509.2574333681785,186.70686338282871,False
0.36328125,-314.84090668490205,-999.1595232100348,-639.9938376957059,-126.61827547038088,False
0.3671875,-562.1816127266206,-882.678850071725,-487.1451958037022,-409.70382532085523,False
0.37109375,-55.901085582992806,-535.782266111018,-334.8426195318218,-83.24995783079714,False
0.375,493.24072343120497,-427.4018298952356,-384.81137714984436,337.08279404414907,False
0.37890625,356.0133049040105,-808.4725887693047,-534.4220993792729,357.9128089805121,False
0.3828125,-410.8558257061867,-860.0427429400409,-498.64639209574534,-205.92166349690208,False
0.38671875,-643.0112056105787,-677.5635570385942,-444.98469404300454,-459.67190909801917,False
0.390625,48.03254429404224,-587.9450506844403,-399.9922087218441,59.32447293523379,False
0.39453125,670.9849291185985,-862.7807192478484,-479.2996229418452,558.034028222853,False
0.3984375,348.40133940834454,-924.7978321290135,-518.5302466121352,346.8098203248993,False
0.40234375,-464.16244534779025,-664.1766568299048,-450.5168592052253,-287.3861531520877,False
0.40625,-561.2424269014772,-744.7301272929129,-493.58086905597605,-383.0572069382554,False
0.41015625,170.24258713832256,-944.991847473599,-609.22608941979,216.36594041859968,False
0.4140625,457.71732360593944,-717.998234056434,-466.11872977963617,346.81542384553165,False
0.41796875,295.1293513442418,-686.6941006427656,-443.53474403745275,239.0769036118397,False
0.421875,-223.72836457761093,-888.4817543814472,-585.1474220132912,-86.63509573567113,False
0.42578125,-624.1925267156788,-926.228279800238,-544.1153257004639,-438.10100739378584,False
0.4296875,-254.59408215762727,-660.738509444436,-437.24664933310953,-191.51203135491699,False
0.43359375,355.55965818047247,-420.523806378571,-405.0539464045904,240.55618995887255,False
0.4375,488.28485652125806,-625.523064806266,-502.83746785725185,404.67737789570873,False
0.44140625,-8.361168126602369,-998.6954527072396,-613.5940337527469,140.73620603978452,False
0.4453125,-619.726902267213,-955.6215141076116,-530.6236957707684,-389.93527255768174,False
0.44921875,-385.94111248245025,-665.0330416959163,-455.17594816338055,-300.09243424566597,False
0.453125,478.5543131371322,-783.7971577989562,-585.6154167874802,376.25036005600657,False
0.45703125,534.8816178770907,-912.1481227490539,-605.1808244185692,462.45211970455375,False
0.4609375,-248.17164275195336,-802.6800089274814,-571.6479262681602,-109.21607461695764,False
0.46484375,-655.7917727841152,-910.3150985271915,-613.3658421277374,-428.2362684339352,False
0.46875,-263.16269977147175,-983.2689902121994,-622.3729622260713,-146.9972759736296,False
0.47265625,336.1829520872757,-845.8871768080057,-539.4636584265505,267.58214880470945,False
0.4765625,362.1700837809791,-574.9741820767458,-470.60276832995055,266.1308667668783,False
0.48046875,-62.71524550982726,-666.9535911367728,-517.069696150354,34.12714279855643,False
0.484375,-485.9485162831156,-948.2003995429435,-571.990158310188,-256.5814542065987,False
0.48828125,-323.8475465640642,-998.3281836581309,-595.845895552283,-167.38395704889513,False
0.4921875,222.97690252640092,-804.6996012200891,-499.6642060455073,179.83974884782077,False
0.49609375,423.2981154048651,-533.7991846042913,-409.022908146136,307.86433852704187,False
0.5,303.47254942543645,-872.7421984685935,-663.0771149356001,384.4343019396289,False
0.50390625,-420.84532651986814,-997.8406899491852,-660.3032440258195,-190.1555490065922,False
0.5078125,-619.4932593223507,-762.161845413411,-464.82124649958797,-472.43526860654987,False
0.51171875,133.16443427414436,-547.4544374103929,-462.23826266129277,78.67411160278506,False
0.515625,477.68111770922354,-556.859102692742,-444.9199554961238,342.02328107831767,False
0.51953125,54.02229056662801,-528.0641600727934,-456.15310678259675,92.18292180441948,False
0.5234375,-500.0600292050726,-662.8710365225552,-520.7715952531743,-293.41327609953,False
0.52734375,-395.5918056975644,-902.9477976017886,-548.7002574281223,-232.26074397585765,False
0.53125,172.59445628204736,-810.635815987059,-483.0478597889452,152.45903945641558,False
0.53515625,553.6185744655282,-769.3357944401208,-497.4516564903406,419.8199448361106,False
0.5390625,183.29631631707056,-851.2644701978544,-487.36230242224696,202.64330586733917,False
0.54296875,-352.8801321095562,-921.5431106263735,-594.1245417035466,-150.71273801848065,False
0.546875,-434.9374623252655,-933.3778654258485,-580.4608633427695,-232.6786235464229,False
0.55078125,-171.13181817314737,-516.6477617392565,-373.6104461070077,-156.10922644709132,False
0.5546875,388.34728808677204,-379.19644083445246,-431.01535555411425,247.51153013788,False
0.55859375,349.13679382435936,-745.0802163571537,-561.2746792060708,333.62336266397193,False
0.5625,-363.74309336276093,-882.3734283912984,-536.4807374805426,-178.6653045739989,False
0.56640625,-650.2450526874009,-738.5995180495361,-473.02793033130877,-464.8511716842419,False
0.5703125,-46.729517105283236,-625.6035110944939,-461.70610631142415,-23.80068563247772,False
0.57421875,541.1275165768832,-732.5368365908466,-489.1283950181602,418.91687761338665,False
0.578125,309.1086761524904,-698.248416565571,-477.7411345792895,270.24380741469815,False
0.58203125,-252.83430842540594,-887.4110828577096,-591.7577099674949,-84.83700431494934,False
0.5859375,-470.5746016969845,-999.6872758591747,-681.5522205202357,-254.82230639955438,False
0.58984375,96.77357627655354,-968.1766525378464,-717.2208349865706,166.128172308021,False
0.59375,377.405519873184,-779.1648942055305,-529.2234331125626,267.064031787938,False
0.59765625,279.3198852017458,-858.4880938301184,-524.0897140344586,217.2011630524356,False
0.6015625,-168.76720295046695,-999.6298325627174,-671.3386148656382,-17.673796294176892,False
0.60546875,-676.502989698389,-964.0002901022915,-577.9042648135718,-463.7439178636267,False
0.609375,-340.6057226812855,-754.8308042731032,-470.13547532121714,-272.80276119872735,False
0.61328125,303.4143085780125,-530.3129303980741,-420.12163454935296,187.58217503395494,False
0.6171875,490.89052342128554,-757.5910417111769,-571.5344847813149,411.8993323941674,False
0.62109375,-112.2733316292272,-999.5581862429038,-636.2415863733823,38.10617574739043,False
0.625,-666.6170198712764,-960.7083815792486,-551.3326602749969,-432.1336453977689,False
0.62890625,-240.8189295034184,-983.5545015108046,-599.7933075841624,-127.06936824716152,False
0.6328125,470.9432867721113,-996.8337272248673,-615.4522730784197,413.8087475393701,False
0.63671875,567.0404016222074,-976.6191313255403,-592.0982728757173,511.44495244399343,False
0.640625,-134.43072522433158,-981.4853717113295,-576.2863298895129,-16.72430344661824,False
0.64453125,-678.5174968143389,-984.8459341808082,-586.4405650065621,-477.01990227460016,False
0.6484375,-329.5906783169027,-980.4716113722378,-627.0100543851484,-225.46462723950066,False
0.65234375,236.79250916313237,-736.9700984869867,-510.0814121903033,148.81198701714774,False
0.65625,390.10819444550424,-591.5990230321389,-456.76377130768526,257.2779598988219,False
0.66015625,17.529571089839457,-740.1231391542547,-517.2573532497559,87.46258159679832,False
0.6640625,-427.5979531173697,-970.9738525420431,-650.791843038472,-229.4765095646136,False
0.66796875,-409.5543484273898,-910.7524586340953,-602.2784987905933,-303.1598848965328,False
0.671875,156.00703663858877,-685.7355352156198,-464.4800500614204,60.80676711377647,False
0.67578125,639.993948197717,-858.2329548055793,-554.8849942963313,470.7213662480161,False
0.6796875,423.04255909687464,-999.7052786595043,-762.8523303015505,462.23340356412524,False
0.68359375,-521.8035372283604,-975.8743399768038,-658.6435378769381,-320.3323507698999,False
0.6875,-611.1417185210902,-923.1644654765902,-542.0984755562507,-502.81183473095473,False
0.69140625,272.23685628662554,-985.0591660244476,-625.2228889749421,186.19539309531802,False
0.6953125,584.0496162657175,-998.7945416933712,-604.4064409849386,417.7292439190014,False
0.69921875,107.9397201538086,-908.2787036895752,-561.4708662033081,98.98173809051514,False
0.703125,0.0,-951.3307906824147,-594.6932414698163,-315.75008202099735,False
0.70703125,0.0,-998.3454115034795,-627.8310893816384,-335.1632603619827,False
0.7109375,0.0,-871.6202424917592,-546.5705619162801,18.49602936912465,False
0.71484375,0.0,-658.8658903445855,-488.90771168431814,266.7519037663289,False
0.71875,0.0,-782.1223012490843,-572.7395397768893,202.78592738981808,False
0.72265625,0.0,-987.8997933135454,-713.2930054709437,-38.14733777926993,False
0.7265625,0.0,-993.7261984126076,-669.9687867187023,-252.12801570225233,False
0.73046875,0.0,-857.318150256379,-533.1974916734068,-119.93906707819558,False
0.734375,0.0,-713.6813771403064,-500.10137007271703,241.6950459154865,False
0.73828125,0.0,-908.5347461199792,-645.4532973976774,337.9102373222134,False
0.7421875,0.0,-999.3263554797186,-674.1145006714687,-143.77629481862715,False
0.74609375,-0.7838230361063674,-952.5457392904519,-559.1466251772536,-491.0920537021225,False
0.75,-45.89387718799597,-946.6612793386033,-598.317852912114,-39.833043698876814,False
0.75390625,588.1903354468046,-972.4391566334004,-680.3329682922084,432.91269556285476,False
0.7578125,355.1303331209559,-887.3452116843182,-586.4796704271456,272.5574492011049,False
0.76171875,-301.0805614584605,-933.073516760011,-591.1475223377793,-177.11625898470882,False
0.765625,-556.521460768679,-1000.0,-649.3919464770785,-369.31159199120987,False
0.76953125,6.905385388688805,-999.3569065895495,-681.140063694146,68.33243041142718,False
0.7734375,450.767646559486,-952.6857793614943,-611.0980825944634,335.7843569733549,False
0.77734375,248.76750933704145,-822.99123662867,-529.9491982447506,154.21315516655986,False
0.78125,-138.66048912297035,-940.3290625763033,-677.4607562797582,-19.635481444954827,False
0.78515625,-304.29894949487243,-999.2520194134569,-855.7698200101484,-95.33469351841961,False
0.7890625,-303.76572085596996,-945.684776450525,-676.0964182296118,-231.2283847172201,False
0.79296875,187.53484744799925,-742.6835251273332,-535.4067048634408,49.34401615110711,False
0.796875,474.02347922834514,-810.83477077547,-650.0460382870681,338.62259978558785,False
0.80078125,-81.77603713643717,-999.9859920535006,-693.6235291060093,11.087438674998474,False
0.8046875,-596.1854450578379,-998.9812322594921,-678.5673323808143,-398.0822129471371,False
0.80859375,-252.31234643968992,-996.1505005493834,-701.9639982145037,-166.9412193070138,False
0.8125,387.98121127609573,-1000.0,-689.4459715694054,269.0284234411244,False
0.81640625,529.5867677748444,-999.8557391496764,-688.4382916463192,393.73739803976923,False
0.8203125,-79.03867192268953,-990.1834664189354,-653.2912218822488,7.667702642381882,False
0.82421875,-682.4058165285662,-987.0143653577642,-653.0021830937558,-481.70174733336387,False
0.828125,-274.8077694363478,-999.1754479001343,-758.8183021475552,-171.5378945832316,False
0.83203125,336.8679824845867,-942.9969345165425,-663.495352177695,263.45941811134173,False
0.8359375,297.5179145746856,-794.4201214557136,-565.616213202753,152.80261276667989,False
0.83984375,-13.122383601232233,-889.4285575398036,-705.0089619997865,21.200693512474835,False
0.84375,-446.33794427572946,-999.9200008011842,-824.2425947686485,-248.06463935264316,False
0.84765625,-505.3834334177756,-994.0203281421682,-760.3652613195886,-372.81611725140397,False
0.8515625,76.00424627640093,-953.2810640108046,-703.6354568848432,-1.0098855641863018,False
0.85546875,441.11772829935296,-901.0796792020205,-706.9857064918814,280.5837175520388,False
0.859375,98.70201771653544,-977.4037815017854,-831.5727430873467,137.01282746406335,False
0.86328125,-460.43789248489196,-999.9245909191491,-926.9293756104261,-252.24531283382677,False
0.8671875,-513.1104499221707,-995.1931927000671,-906.6090724098858,-358.42821365484986,False
0.87109375,56.10349178023135,-1000.0,-899.2494739844036,17.431449866850812,False
0.875,597.0657939163411,-1000.0,-950.1489940369003,462.90999887452693,False
0.87890625,121.47848534214381,-1000.0,-946.9855681922231,149.7396926218563,False
0.8828125,-698.8346640286425,-1000.0,-930.0167165468779,-493.7620825989593,False
0.88671875,-667.0033294882551,-1000.0,-949.7942009228188,-495.03788276006713,False
0.890625,-154.50064591535434,-999.8539000984252,-924.7316375492126,-158.37998277559055,False
0.89453125,227.72436615835977,-990.8075734323495,-889.8954693031986,74.69159176230009,False
0.8984375,109.60858931487303,-996.1559848461726,-905.7635369136094,68.79835719081919,False
0.90234375,-392.5600029758271,-1000.0,-935.6902416714992,-239.42225198579234,False
0.90625,-622.3920976529117,-1000.0,-914.4086068169332,-452.9814544927359,False
0.91015625,-100.12465880218825,-999.6498609457975,-904.9022865260483,-83.39452123580845,False
0.9140625,340.1642833025577,-978.547576989989,-853.1631397074533,188.94684094967036,False
0.91796875,321.0084691849286,-980.790654376755,-861.4890771883775,241.41546600308266,False
0.921875,-230.5272292951105,-999.7162472530827,-870.1370978818215,-76.6150896372543,False
0.92578125,-832.161740496429,-980.67244393618,-812.4230410091869,-646.2431255531986,False
0.9296875,-280.91754431311807,-850.06713494613,-751.1793026454341,-277.1582973118362,False
0.93359375,505.79997092358144,-904.6191584998475,-790.4852186928005,331.0291264681208,False
0.9375,378.58023240065313,-866.2127854695702,-730.5616253738859,265.9607939544927,False
0.94140625,-253.2001467883958,-839.1582129013551,-678.4594944146014,-151.77129671667075,False
0.9453125,-548.7403166394519,-941.8809993437919,-691.6013002075449,-371.060069264284,False
0.94921875,-106.59911125778294,-909.0512238089061,-644.8609039265657,-49.449519670980344,False
0.953125,451.6391132416677,-705.5745134713405,-579.3686239088634,312.2076631363692,False
0.95703125,526.8263202996246,-821.4859486586706,-596.273039793536,403.8822695877586,False
0.9609375,72.71620170957453,-999.7132070450799,-686.1308035782414,180.57956260110183,False
0.96484375,-290.026156518969,-980.8755119471829,-771.9291991591381,-75.47596542699304,False
0.96875,-251.12851328821267,-838.4815579790319,-602.0021975338786,-139.6067091548651,False
0.97265625,347.0803988371383,-845.4700721924215,-490.4955050226621,249.9614012807502,False
0.9765625,576.0641330285205,-914.079846010346,-531.8709692879052,458.2895510494873,False
0.98046875,-34.19258954315921,-913.2380207062,-511.27605795562033,60.71251578042045,False
0.984375,-595.8598649800861,-810.9415414415857,-458.87564949185133,-385.1888140049899,False
0.98828125,-346.3272022074533,-642.7337121154316,-399.09442337626666,-235.69975573418998,False
0.9921875,407.46578514146626,-650.8362837260407,-434.98986120437064,315.95790873748626,False
0.99609375,546.4741694390184,-621.3892462954767,-403.9814087107801,420.5585303229154,False
1.0,62.42512742644366,-616.3539464999694,-388.91556853558785,129.53384431082895,False
1.00390625,-362.87144305453825,-917.5432660761155,-508.7981527631539,-152.5114579041537,False
1.0078125,-172.14560831819986,-998.1463076852643,-534.0314624568887,-22.593186548116837,False
1.01171875,391.40934385873214,-891.3499405788365,-444.37677166631056,362.6339539490752,False
1.015625,401.0130926855695,-512.1444089263368,-290.7796214023013,272.7089528999054,False
1.01953125,63.68913861250152,-490.33735459460075,-333.2144572263002,100.2740479260774,False
1.0234375,-338.5062373145831,-881.0306996627396,-497.0253353051367,-124.36707042218593,False
1.02734375,-410.65138452927624,-835.06460079827,-416.65211586356565,-237.18025578583632,False
1.03125,180.84611730863142,-636.1034357450251,-348.05332500991943,155.39784758042364,False
1.03515625,570.3022467494811,-582.2652864042852,-345.03350428442803,416.3180362783848,False
1.0390625,301.275671277927,-798.3306039021487,-436.5667753670187,294.85630188621656,False
1.04296875,-409.6165236616408,-795.2849116026737,-387.43033750839334,-217.57779117323892,False
1.046875,-518.2363598385423,-666.2773809478391,-350.21449561637775,-347.4951189758576,False
1.05078125,233.7602001693829,-832.3399314933926,-433.28083631851615,219.23631417666178,False
1.0546875,787.6724990175956,-968.426366877518,-539.4535840117965,658.173378651111,False
1.05859375,233.38815444352034,-778.0764699346081,-434.8147511846081,250.64458370849104,False
1.0625,-454.7914214629624,-746.2818256127151,-400.45595966609693,-256.9131349384996,False
1.06640625,-407.9575536888811,-997.5257773871475,-523.5105842159077,-207.13890913044804,False
1.0703125,0.2117584252731497,-866.0167933223463,-403.48542744384423,34.49668434886773,False
1.07421875,370.1413380210557,-445.3085692123559,-291.25832135832775,242.77574832667563,False
1.078125,241.52601631172934,-403.9322884873642,-306.13338715892445,218.27781396883776,False
1.08203125,-248.54394900843914,-765.8216299234679,-456.4771273825693,-60.771731168355515,False
1.0859375,-490.6581561508058,-996.8819984395983,-500.80377734518066,-267.16641526332256,False
1.08984375,-106.33262304103339,-833.571498227965,-391.83042850248734,-42.10290988562839,False
1.09375,393.13531763139423,-571.5108784603528,-332.13646504166155,275.59706108457453,False
1.09765625,483.38061353543526,-807.0904565605542,-461.5733207560127,451.3579238073801,False
1.1015625,-90.71247453378709,-997.576060043035,-539.8965900073251,132.11641159122817,False
1.10546875,-730.9378362112379,-872.0583305037542,-434.20840852383714,-454.3980721981443,False
1.109375,-329.670439068032,-607.471293283024,-345.12792956827616,-216.87198602124283,False
1.11328125,430.27699611449367,-633.7398856665446,-388.70138110007326,352.9781669165446,False
1.1171875,375.23484116522707,-631.0812803782353,-389.99859792760344,342.8807687648791,False
1.12109375,-236.2134998151226,-621.6746486376251,-384.3618906192821,-36.09701632639058,False
1.125,-575.8326831659748,-793.5319336295172,-437.19252170827735,-287.75467405155047,False
1.12890625,-158.0911141992736,-914.3022293428,-516.7682076268924,3.3542436057868388,False
1.1328125,333.79245441834024,-656.1767369483274,-378.9295582613539,292.12387023486144,False
1.13671875,363.7385051387109,-512.3248768254441,-358.0426654630562,318.3389889672221,False
1.140625,-76.79529647631547,-738.315407631089,-461.9058956667379,96.37125541753144,False
1.14453125,-437.8519487852521,-955.9830339702112,-533.0359135598522,-155.8460100071725,False
1.1484375,-232.2059606198877,-996.5860252487487,-522.4779268976621,-60.47850012590038,False
1.15234375,208.5207134736296,-829.2930956041693,-406.25900140016483,159.633811118911,False
1.15625,463.80781765015564,-726.2585871692455,-458.75056151002565,370.051916430141,False
1.16015625,256.14291910519165,-968.4827001434501,-701.5000088225644,398.3666810371139,False
1.1640625,-613.8503650157185,-975.0733643919393,-574.4033681212611,-328.03787717655047,False
1.16796875,-600.0138138857966,-788.6460878884806,-423.14377473275283,-426.16856300323286,False
1.171875,236.07236005028386,-769.5559889474729,-504.6360191444879,202.25740809272372,False
1.17578125,450.94069996795264,-793.7685929583537,-445.16361922575084,343.70377095478267,False
1.1796875,-18.616560897729354,-764.1549405252396,-439.68562710774887,51.054583781587624,False
1.18359375,-556.225368353986,-882.9424539891344,-521.8173075822549,-331.5131627891894,False
1.1875,-383.04510571816627,-982.7644051016359,-560.4105425352521,-227.28600989271763,False
1.19140625,259.52419671743377,-996.7635495513368,-528.5727689880662,227.65143097225612,False
1.1953125,471.21697976437554,-890.3915597149311,-426.9545318413503,344.13843128128434,False
1.19921875,119.27844776278843,-904.3944001037725,-508.2458786701868,150.68248496825785,False
1.203125,-332.32258548304645,-999.3503293238418,-662.5641265908258,-111.74320727850515,False
1.20703125,-451.8479338031071,-963.115421556434,-544.6970486376053,-241.43084587886094,False
1.2109375,-110.73182694802222,-678.5426232393023,-400.0180206839061,-108.18037709070931,False
1.21484375,407.92936223731164,-610.1126493110627,-453.2690449048374,261.72494547977794,False
1.21875,290.16871842952634,-912.4875530307655,-592.8427661648456,295.0504579149371,False
1.22265625,-463.3996511987242,-951.0333368941522,-548.8677669278782,-252.89278772051642,False
1.2265625,-632.6960779170736,-851.7521255226774,-482.4940650370834,-446.1130881073739,False
1.23046875,17.456576291814187,-772.2184958147662,-486.2651151988463,22.915299566597486,False
1.234375,525.7082373183982,-876.2370665974851,-507.1007932677634,402.3168054114272,False
1.23828125,345.8013594503449,-999.6433040346701,-563.901897403177,322.95827324818407,False
1.2421875,-367.5358124580332,-982.4094161083812,-560.4985595375259,-184.9544815288884,False
1.24609375,-632.3361411343243,-938.409975983549,-538.9685516115248,-432.70290944329145,False
1.25,146.89715775126663,-979.3964209479154,-664.5767422418661,185.32470136811745,False
1.25390625,509.3720670934562,-973.621009339519,-554.0657774634508,388.92427187614453,False
1.2578125,197.00446517137712,-908.1129619685478,-463.76736733724516,131.9146252365401,False
1.26171875,-320.22259500259287,-926.7544760653713,-589.1824507828229,-173.7215974086389,False
1.265625,-631.573525821023,-965.4185281482725,-578.8584054717068,-423.0337365324747,False
1.26953125,-254.71838305141,-767.1097231123725,-457.99714261734727,-202.56977864821766,False
1.2734375,344.23938407055,-574.3814607400653,-459.25298631882555,196.18033035496276,False
1.27734375,396.2933485971646,-716.8784837206996,-536.5995738462947,291.9647660160542,False
1.28125,-204.9042370246307,-917.1610978799139,-537.1809093059455,-83.36026798658588,False
1.28515625,-534.2462144045294,-988.7573704179893,-604.2406848026798,-331.32472950494446,False
1.2890625,-180.258577155054,-965.4077337693799,-571.4273239123635,-119.49946686351706,False
1.29296875,436.2867185592419,-905.7065181105787,-556.8872395197473,293.9223022982542,False
1.296875,514.1182490691002,-944.0031837535099,-587.3122105245086,407.26453529407274,False
1.30078125,-279.1776511567574,-866.0667958735197,-520.8622053740386,-169.2051608663472,False
1.3046875,-682.7537584124344,-862.9845614660908,-559.2580652545477,-486.64293555808206,False
1.30859375,-174.26433086104333,-995.6298977082063,-648.3631406345332,-94.92860785921293,False
1.3125,367.8472847485045,-948.3729760560371,-558.7032571000183,248.57736149050788,False
1.31640625,323.8720086179271,-659.5446690166636,-417.6560747516481,182.8207795905054,False
1.3203125,-78.39680055663229,-723.2886728764803,-512.1679258294164,-3.3175226620681233,False
1.32421875,-465.07206365980954,-980.3981694848004,-634.810959866393,-250.39886336756805,False
1.328125,-355.604277703806,-956.7002846111586,-573.432170694207,-236.46886874694786,False
1.33203125,288.57010552740815,-964.2261406860426,-541.1913013330179,198.53061978276463,False
1.3359375,589.9909020285222,-999.7728785786229,-592.9326013307289,434.77454294347456,False
1.33984375,250.51015748985228,-990.4626747237991,-722.0284257595525,306.60310158586645,False
1.34375,-483.45953971966185,-999.4735075082408,-693.3056646586192,-268.73429821984496,False
1.34765625,-490.56265785236843,-975.3991137376389,-588.2509790662007,-367.0803773768465,False
1.3515625,170.50148171392382,-886.5915381592602,-541.5899858648212,87.21480464457942,False
1.35546875,445.7128262676959,-879.0468826275323,-504.2320886471809,274.89358400582745,False
1.359375,8.759733434562323,-786.4512593853009,-479.4028888414113,25.78096386277622,False
1.36328125,-515.4669091838604,-863.6590703592358,-558.4794143343304,-320.1030237074228,False
1.3671875,-375.7114546614631,-996.3385612181835,-630.9413661932339,-223.0762201577092,False
1.37109375,143.515492661534,-841.2850172349988,-491.972956694085,104.66607547536931,False
1.375,456.3771581900104,-646.8801385476438,-407.32641246871566,290.1333983659657,False
1.37890625,238.2495662636583,-903.7454051130815,-573.5030790749756,226.68699949830608,False
1.3828125,-281.75431685691615,-999.727841771838,-700.4476199582621,-89.43066918912525,False
1.38671875,-472.3678475231962,-984.2622440502533,-606.7746385609968,-287.4926796560249,False
1.390625,-194.4361390236831,-798.6196152261491,-384.429255459165,-216.68555653154183,False
1.39453125,287.27116175528016,-602.2812409389879,-355.2889008324686,101.48154701043829,False
1.3984375,237.8078121184837,-867.1291399287328,-503.6708425215175,183.64418168569162,False
1.40234375,-444.2387341900098,-996.2737340565117,-511.71195589985354,-284.2562105227023,False
1.40625,-694.3122715671163,-846.7916386888048,-434.19702264680745,-526.3803021227567,False
1.41015625,-79.27424769578221,-738.4976876754868,-421.5390775212873,-90.84573543268937,False
1.4140625,522.5732463603346,-860.8368333479581,-502.89028401980835,346.28851407032107,False
1.41796875,263.2154563221066,-805.6364025683678,-445.0423387712123,187.37836187393177,False
1.421875,-311.4147649668844,-902.4136449781009,-494.2350204778873,-182.26005247756683,False
1.42578125,-444.6803155712062,-1000.0,-593.7336067215541,-271.689320786534,False
1.4296875,114.65739121062752,-993.6915683944268,-625.0828307650928,137.00387382111464,False
1.43359375,352.38652490386374,-748.6151803698956,-402.23547155397364,183.67019762291704,False
1.4375,225.57902251709194,-666.5007468181541,-383.80497888307286,109.2249567932792,False
1.44140625,-122.9827325723355,-983.423474507081,-550.0803926374984,-0.4869697877243322,False
1.4453125,-595.9458647448419,-977.9601611143328,-465.22008006119523,-405.6097679617873,False
1.44921875,-311.38307712847114,-729.2739286122978,-367.2877190933018,-277.85488823619164,False
1.453125,323.04609408382674,-505.92229538327126,-319.27167584849224,148.7709392835887,False
1.45703125,465.7755737528232,-717.6386251392535,-446.1554721836467,317.7744628250519,False
1.4609375,-135.80755197205775,-967.6346609464656,-458.7853904056281,-45.04866955728849,False
1.46484375,-621.8958582113753,-905.0040512261934,-432.45334413342385,-445.6863561664479,False
1.46875,-268.22557008072886,-806.5372579279086,-409.5519937564858,-226.45057861715603,False
1.47265625,488.17991591894037,-895.4667721971708,-461.0729002147806,341.62022585339986,False
1.4765625,591.0254967342205,-983.1881862524417,-518.7647599117935,465.2790362516787,False
1.48046875,-133.74745337870834,-956.3369499488768,-472.51330061195216,-50.576423437309245,False
1.484375,-657.7205664944756,-914.0650633126297,-468.5906573335063,-464.1469462481687,False
1.48828125,-268.8517337054389,-944.9726524348371,-513.7001906627701,-179.90871984113662,False
1.4921875,306.7812111353995,-768.8004524507111,-424.59650557170545,184.75301188732223,False
1.49609375,389.74391381663213,-605.7182213363777,-365.9596793329928,221.9714173807636,False
1.5,11.875887025393725,-760.9464179434746,-431.04861900637894,48.817186212382495,False
1.50390625,-433.6561338759767,-965.930028241744,-569.9576004246277,-242.29718593578318,False
1.5078125,-402.5656255722744,-910.4793168092266,-500.2069129799475,-290.6984299650531,False
1.51171875,171.3572704607191,-706.7770945721676,-401.3675153655689,68.29019536495849,False
1.515625,502.35172558826224,-686.4257693283434,-440.779915966627,331.9872590871635,False
1.51953125,250.4958519640459,-933.0015055586924,-578.0563866782139,281.6892206385057,False
1.5234375,-408.69623481565134,-997.3388045949823,-589.7968950296057,-204.2488039464046,False
1.52734375,-564.7396198953119,-899.937932067208,-465.3731038639971,-424.32958048467833,False
1.53125,177.53694031559027,-852.368274344555,-489.080884316628,97.24152986128067,False
1.53515625,747.2743044957881,-986.1202582293065,-654.9164813133317,576.9620310210902,False
1.5390625,141.79880630836843,-992.3384281724959,-569.9910623340505,153.59713336614175,False
1.54296875,-644.0530655746767,-860.6511016320758,-473.2425806506954,-457.3858897977156,False
1.546875,-541.6223551382615,-905.0913528854078,-509.5742707315957,-389.6798529826944,False
1.55078125,63.8777805384721,-873.4122960795385,-448.66391203950985,20.82766026545904,False
1.5546875,405.7560854234068,-606.3043601113264,-412.52549601887745,222.94647064041325,False
1.55859375,163.99340978284093,-643.7048201246032,-464.9470872661305,120.17086803541997,False
1.5625,-345.8043100603522,-912.6185489531832,-556.7480093217818,-176.25027777459866,False
1.56640625,-425.0099313461421,-996.5529406322488,-591.7007209704249,-256.25180028003297,False
1.5703125,-24.361663620894884,-866.0915348209926,-465.749314701349,-39.91346018114394,False
1.57421875,340.9916967746612,-575.9530396357283,-415.92423992415456,158.96425001526066,False
1.578125,397.8991447358381,-813.4469353749543,-567.28868527576,329.54137925772187,False
1.58203125,-233.00809863722378,-994.853523970669,-577.9558809783604,-45.28968055640337,False
1.5859375,-745.036954751114,-815.5066715974639,-471.6680936889611,-555.3180960256058,False
1.58984375,-130.0264491634639,-804.8673586009944,-523.5243909471847,-123.85328971449488,False
1.59375,0.0,-924.1362402147042,-574.4481822811756,349.9287561801868,False
1.59765625,0.0,-745.4036227833903,-479.15388984479915,178.03219616041997,False
1.6015625,0.0,-725.717381787175,-469.29670093318884,-227.65792867171285,False
1.60546875,0.0,-885.1678266351788,-540.1787332323587,-391.88698438072277,False
1.609375,0.0,-933.640187686943,-562.4230410091869,-17.255743727872055,False
1.61328125,0.0,-950.578617156025,-574.8562398898181,363.1062890100415,False
1.6171875,0.0,-894.2717155359214,-513.0825279062137,262.16250386261675,False
1.62109375,0.0,-822.7806421968471,-532.8535606916128,-107.60524127090709,False
1.625,0.0,-974.8588210860242,-751.37512780796,-95.92914360082713,False
1.62890625,0.0,-989.6695222366775,-625.671200431495,-50.943096367201804,False
1.6328125,0.0,-637.6299480279423,-419.0870100376938,49.3984322541509,False
1.63671875,-2.7194623287932402,-595.2231252573821,-507.30580878035204,259.00679464912145,False
1.640625,-109.23810957814503,-908.2287267575383,-539.2313404615303,-8.151343284578527,False
1.64453125,-611.5879137544256,-926.5050579523257,-529.6008958002686,-397.0565898356428,False
1.6484375,-254.19334101452813,-946.6147224278171,-571.508792043096,-172.82992337245147,False
1.65234375,318.6695358281956,-789.0440799162191,-511.6985713645312,194.47456502373032,False
1.65625,400.58218791013,-696.2061721229855,-481.94664876083505,260.25873481565134,False
1.66015625,14.572730359540959,-925.5626232774539,-615.3976818592815,85.60134837397754,False
1.6640625,-473.6962059089453,-1000.0,-668.9693644421809,-266.75410009613626,False
1.66796875,-295.2789504105115,-997.7346873664693,-635.0556966106092,-178.33377287190208,False
1.671875,294.6177349758882,-913.907926287236,-560.9442480695275,222.21828121184836,False
1.67578125,307.22589484647784,-636.7629224339214,-479.5218146250458,154.7691802550055,False
1.6796875,-24.34157440330851,-742.5668106572763,-564.3531558074411,2.2229881691795876,False
1.68359375,-440.31135600976205,-992.7821365924344,-669.604358126144,-232.2141692724222,False
1.6875,-468.0794851056037,-892.2357141222074,-544.6163639016909,-311.47455572427054,False
1.69140625,83.8020817436821,-620.7916963931449,-455.4521898081736,22.392324178213894,False
1.6953125,473.6452117796972,-588.4374451570321,-519.2437417020205,308.64483741682943,False
1.69921875,231.04245513368332,-913.7692093456233,-623.5043964984434,249.19887538533146,False
1.703125,-375.85411961298985,-999.4472782627274,-669.1010784511965,-179.9058584688988,False
1.70703125,-448.5481866206586,-982.000265614509,-625.588601990249,-285.6197342042819,False
1.7109375,174.44370750862225,-999.7512096451136,-600.402243363524,138.36821187126114,False
1.71484375,654.2182170694207,-991.0085848320565,-703.2854156810829,498.3934289063454,False
1.71875,174.2881203931907,-969.0745869132279,-644.4307741061073,179.71617333429984,False
1.72265625,-502.87326481618544,-979.7588316254121,-610.5743322510988,-308.25700225476135,False
1.7265625,-563.5590952054847,-984.8752930522066,-629.2998973244262,-396.9219861166219,False
1.73046875,-55.17423190749329,-869.941605280922,-500.445465765728,-75.45655548267024,False
1.734375,373.76651011781223,-665.4264803786168,-455.88088894251314,209.56040499862655,False
1.73828125,208.5894403211408,-747.2987016362235,-562.797594352759,171.47049819172312,False
1.7421875,-325.4935509438713,-972.5703492209437,-663.9327248466304,-144.75145643846906,False
1.74609375,-584.1939109044988,-980.5934581400318,-610.5131704195153,-390.98463872314125,False
1.75,-109.03920604550727,-832.9173216029789,-524.6917944428336,-95.78735664525088,False
1.75390625,471.110334036595,-924.7612900210597,-583.3904614248871,320.0767944619094,False
1.7578125,464.0829396802326,-1000.0,-702.8184047965116,407.7640503875969,False
1.76171875,-174.08296596493102,-998.9683560844219,-703.9295523001617,9.24726953554206,False
1.765625,-759.4295925978208,-962.3342371295477,-559.8023519049109,-560.2449108110274,False
1.76953125,-224.48326597981014,-825.8711328554206,-509.3904573712764,-229.40882022761264,False
1.7734375,514.2661760526034,-890.723687536244,-602.3336696240539,329.2835875026706,False
1.77734375,330.79190893505523,-847.8471585231433,-566.4879530077195,230.87225916503937,False
1.78125,-330.93886153628983,-827.5298941864546,-587.7378396448846,-198.31568899935905,False
1.78515625,-598.5895938568245,-946.0699886880418,-705.2127883309425,-400.9013203325296,False
1.7890625,-116.14941799688683,-978.2146444077341,-751.5227865378159,-61.70114063835307,False
1.79296875,363.46735841930166,-786.7764424177451,-662.2877934814126,231.8096009530277,False
1.796875,327.6871473573979,-709.9117606665446,-627.7608768426112,223.5622660970976,False
1.80078125,-36.14622518236479,-947.5311066929404,-774.378802048361,82.59052904865096,False
1.8046875,-319.3107216571542,-996.2444489378586,-869.5359116522708,-83.55490091067941,False
1.80859375,-346.4097945248596,-877.3304982698236,-641.0625216987395,-238.96645923307594,False
1.8125,157.82110200028995,-717.9524521006288,-510.2096443981962,30.47379316856916,False
1.81640625,479.2626219898364,-887.1578514146624,-595.3027415284306,348.0159483350629,False
1.8203125,-87.45050724264482,-968.8713028558567,-552.2294034307666,21.882617938564366,False
1.82421875,-691.155195236206,-836.35413646698,-492.76113510131836,-455.9982419013977,False
1.828125,-442.3544372253083,-674.2635304755219,-466.7542524760408,-321.5552893419607,False
1.83203125,274.8807953557041,-659.5929517258744,-479.5012181548709,182.81443130836843,False
1.8359375,445.10797149691734,-699.6752282898151,-465.4760834585978,323.1322333105695,False
1.83984375,-67.97124177832377,-673.6490507874496,-470.9475338786473,19.30365168324991,False
1.84375,-562.6319211825479,-789.5563847706323,-508.3033147566689,-338.5320194706843,False
1.84765625,-233.1789464045904,-974.5015668397479,-549.8452832186241,-101.81182686218105,False
1.8515625,315.4277799185081,-928.6736204370651,-502.9401791982053,259.4598456480436,False
1.85546875,333.0227145707441,-514.8090520184795,-348.7656495586126,203.03543855482818,False
1.859375,8.642655620498108,-489.69303913975705,-399.6909598759309,51.30720598446466,False
1.86328125,-391.64138326364304,-856.1443915196558,-533.307326638994,-175.88080190910756,False
1.8671875,-402.4547473980588,-884.087360555793,-492.6763177572946,-237.91773650195336,False
1.87109375,137.80675215392466,-716.7788423083368,-449.41422318735147,87.86940831822476,False
1.875,454.723642708079,-498.96695520426385,-416.1921060939598,294.6045011292882,False
1.87890625,203.36958771441215,-691.4250873672323,-509.5147482278568,211.8275954076883,False
1.8828125,-435.43003563362225,-802.9857882794378,-513.598999425818,-233.42877996810523,False
1.88671875,-556.1804788595648,-633.0733160421626,-423.6148167593695,-378.36882172068607,False
1.890625,83.92088830347332,-548.9446663067696,-406.3147981588023,99.88454363020388,False
1.89453125,633.2654313804786,-828.1193964793677,-508.8443823632646,504.2212990057685,False
1.8984375,260.906358732145,-862.836902736235,-493.212705828043,249.59994439399952,False
1.90234375,-507.68326135392505,-626.1142660389452,-411.69620477124283,-320.80078125,False
1.90625,-479.4548704370651,-793.3681498748626,-504.5706248664693,-301.7163822144732,False
1.91015625,238.75209582722945,-964.5528019707929,-645.8181630253159,254.62226469511077,False
1.9140625,413.70593129082226,-638.8412026633653,-468.56731926619153,269.5049313366042,False
1.91796875,148.59851308024278,-484.2753720396944,-412.3795469664969,92.28616891088203,False
1.921875,-276.47150836283726,-784.6695782718838,-576.9625079164632,-110.4587745410359,False
1.92578125,-469.00385736822426,-993.5983651549719,-625.1652442467342,-265.5019907997345,False
1.9296875,-116.8733749790166,-797.5583016515841,-512.3557033825235,-80.24900257332743,False
1.93359375,363.5066885262162,-552.4951669604163,-420.95554223509123,217.3107580075383,False
1.9375,380.4058475003052,-725.0477014596813,-540.3966148058845,307.5695575746246,False
1.94140625,-156.7884148760835,-992.9207862478635,-662.5761363462947,11.041975853833476,False
1.9453125,-557.4320924833659,-992.3443389657856,-614.8092823869185,-328.54884076272737,False
1.94921875,-248.04431168737028,-770.4425374458247,-476.9791277202112,-184.17019728207788,False
1.953125,409.6278821796985,-728.6429482924373,-503.54061279222367,276.2657342023744,False
1.95703125,372.9600800421194,-788.4994952062477,-520.9630091335002,287.05968846332865,False
1.9609375,-255.23660925482235,-802.4844222126419,-521.2812771830363,-128.09201076257477,False
1.96484375,-608.3438398344567,-868.7754789105868,-561.2082424662966,-396.66946495836635,False
1.96875,-91.83770916631059,-979.9101862944085,-674.036528277988,-4.074772902423392,False
1.97265625,393.5785918805701,-882.2844575982785,-590.5862760957148,294.51800423101577,False
1.9765625,228.56003588160786,-564.7127945305823,-447.5134317581797,124.51392439109999,False
1.98046875,-117.4924149790929,-734.2862974606276,-555.4113675642474,-9.130042691673788,False
1.984375,-467.0799124038579,-982.5489676168966,-645.0753876205591,-238.23385852231107,False
1.98828125,-264.0255905511811,-994.3252914606604,-628.3061138069951,-143.84447316768907,False
1.9921875,228.37488125305214,-826.5434659134263,-500.1739475872909,141.34052189522038,False
1.99609375,384.4631839156544,-627.0865066746277,-486.53354768190695,246.741642170141,False
2.0,213.96366939514405,-921.7408135644305,-738.3989537392413,300.97984711688133,False
2.00390625,-484.35574534931635,-992.9527084318917,-707.2067773032139,-234.74209021334391,False
2.0078125,-566.3180893494781,-791.33306891099,-507.5920387654123,-444.10054439052675,False
2.01171875,179.82953678848148,-654.8182822795284,-502.84022934651637,87.12443661918125,False
2.015625,465.3709876407795,-764.5964559043463,-540.0423411556892,327.1812240568917,False
2.01953125,-19.88847444031559,-777.6301256714687,-513.2678850071725,39.61554960284153,False
2.0234375,-572.0464617701593,-801.6993033989287,-530.8685731195062,-352.66517152018986,False
2.02734375,-422.8213094497772,-863.6697706991667,-572.0613349446038,-274.70481964770784,False
2.03125,161.37737040845136,-739.8247218746185,-499.1648667840465,106.80083800054939,False
2.03515625,521.2486838491119,-776.2327112136055,-519.4535506031405,367.91656890908257,False
2.0390625,171.59446629685021,-975.4990233182762,-599.9409365080576,200.281570950586,False
2.04296875,-375.39689617415456,-999.2961024294958,-648.7101649294958,-149.2216948289281,False
2.046875,-400.6129774676474,-971.2976346943292,-624.880835768679,-206.52717159077037,False
2.05078125,-43.25095283695519,-729.1845303725125,-500.2892966556281,-75.47858835154437,False
2.0546875,396.3885786419546,-610.0946947297339,-471.6270501732084,210.09715074090465,False
2.05859375,251.92243984517998,-856.5637035730629,-562.205362930903,209.44381816275168,False
2.0625,0.0,-893.4187723187034,-538.5692709605054,-274.44613371383224,False
2.06640625,0.0,-728.212915662007,-472.8552345943719,-459.14556563606396,False
2.0703125,0.0,-698.6155369651142,-507.18997270250884,2.733921949395679,False
2.07421875,0.0,-839.3591644635445,-569.0757771489501,375.76137659845574,False
2.078125,0.0,-791.0848344410023,-550.432281810829,199.09818488852093,False
2.08203125,0.0,-914.7878876682487,-595.0797035236845,-139.12537269373396,False
2.0859375,0.0,-999.2275487196313,-632.983616021014,-266.7567025260194,False
2.08984375,0.0,-976.4898628735044,-686.5064182963771,167.79140453317666,False
2.09375,0.0,-922.7521298147357,-592.4288209811073,340.223895224179,False
2.09765625,0.0,-935.5349533434047,-534.6725585877891,183.67812552455288,False
2.1015625,0.0,-998.5433230832621,-623.5342024592541,-111.75154847927604,False
2.10546875,-9.478877456065414,-952.5845178255431,-567.8575072080181,-438.23558015010985,False
2.109375,-237.61699435737395,-750.1463472675803,-463.43482223248077,-210.5192031459834,False
2.11328125,353.4901707094677,-551.9824898325907,-442.4466568680564,194.1337934737822,False
2.1171875,394.8440337527469,-708.8221113493469,-535.1492157932487,291.3087368186119,False
2.12109375,-218.28389303126716,-934.6100116164622,-547.1899105589636,-87.0995932807636,False
2.125,-613.1158865294225,-885.6029340510927,-529.695589337764,-401.8363333231596,False
2.12890625,-148.30045219219267,-920.9313730866958,-527.8110478535893,-89.04745395098278,False
2.1328125,495.92585302275364,-934.2998234056433,-541.0128232396838,369.15025232534185,False
2.13671875,513.2434441193078,-921.9450738138659,-563.0772818489805,424.43387154155477,False
2.140625,-263.19095582232023,-782.7638447495727,-476.48989267946524,-144.32803295919302,False
2.14453125,-675.604302811985,-753.9970334149729,-477.9600758026613,-479.5973663153116,False
2.1484375,-195.48686487074227,-957.1869563392748,-563.5957863432426,-114.89273907718838,False
2.15234375,365.2054336392463,-924.0239555860876,-536.8968703789103,256.4124170109458,False
2.15625,323.42990544118544,-616.6805304125717,-421.02797420568305,187.0640580171835,False
2.16015625,-110.23549808860335,-666.4288548406788,-494.5913805453394,-38.85394769220791,False
2.1640625,-476.811200937004,-966.7580974449853,-642.6441750091564,-265.49015783329264,False
2.16796875,-398.06625961362386,-814.7370392518159,-512.5444737399285,-286.9676861113654,False
2.171875,174.40630102780491,-550.6079581438469,-411.4525708475766,73.85887282917226,False
2.17578125,560.6162036648456,-783.2565968936943,-540.7036162022341,418.2898794217739,False
2.1796875,264.768853581675,-998.3818343875901,-705.7973428343608,337.91786764818096,False
2.18359375,-554.0659861051764,-951.8367267618422,-594.0584916943902,-322.57733573815773,False
2.1875,-557.6151606946648,-834.3729851170492,-491.36825336115857,-420.788572728452,False
2.19140625,241.21600420405298,-929.1179726603034,-555.4617221834371,177.18827371551302,False
2.1953125,448.1206089858534,-843.9222784534855,-486.98379652591257,314.0241576120132,False
2.19921875,-35.676419734954834,-642.1152651309967,-469.35245394706726,3.513544797897339,False
2.203125,-517.2596081399164,-799.8513607855704,-548.9597102846701,-314.947575707288,False
2.20703125,-390.17188978375657,-993.3288298513612,-597.4123776286473,-241.15812133744353,False
2.2109375,116.24008772967281,-811.2535147188988,-476.19219074288856,64.16782234312049,False
2.21484375,380.66045001754975,-500.0645000991942,-397.93461382920276,215.37417687858624,False
2.21875,148.86843458140032,-637.9676793698877,-540.3306840205713,145.5865002365401,False
2.22265625,-289.69628506874506,-965.7218098123817,-719.1089014718,-93.27456433498138,False
2.2265625,-448.7205135590892,-990.1385786419546,-699.5449762410725,-269.3196276782444,False
2.23046875,-27.299190088588084,-736.111227023181,-594.966768738173,-57.13126092090404,False
2.234375,411.4467586852185,-569.6053833857283,-532.3601528163533,227.59718412358075,False
2.23828125,358.01841149966424,-814.6049863703303,-646.6472347698693,322.8210888856672,False
2.2421875,-275.404633801581,-994.1901625068673,-681.7714731679588,-81.68988233083567,False
2.24609375,-710.1311033369419,-845.029251608624,-551.2184874550195,-527.2942845720755,False
2.25,-88.12197886781223,-711.7641683230833,-528.9064169133806,-98.75841481885607,False
2.25390625,510.21408791697183,-803.0591209256546,-602.8058393704603,346.4642333611823,False
2.2578125,253.7024964518984,-729.6043771364913,-548.3961770159322,192.47843002228055,False
2.26171875,-334.5009719127701,-834.6556052374557,-550.8784174322427,-166.82765859632522,False
2.265625,-543.9566387651081,-949.9020814575449,-578.9595072907765,-341.32164876083505,False
2.26953125,31.39628765565865,-976.0656346332865,-609.655354867385,69.1525712290929,False
2.2734375,461.1821473263338,-894.7820373542608,-553.5851563453791,323.3782815170614,False
2.27734375,221.32388565891472,-690.204994077321,-494.220976965452,137.92751656633402,False
2.28125,-201.9336855523593,-847.0487449067574,-598.9721235578684,-62.59117643411977,False
2.28515625,-348.6868507069497,-993.4263251491728,-756.226614243148,-114.90114435813697,False
2.2890625,-235.3042604401935,-821.6190442921346,-580.1892714278629,-156.56466152827798,False
2.29296875,238.29250840627668,-561.0404876117025,-444.95169488456145,94.91747886040625,False
2.296875,405.7563834830149,-701.9573216792821,-567.2552727936912,299.8823022219509,False
2.30078125,-181.65627217428127,-947.826866788363,-574.0578970483886,-52.11143863875664,False
2.3046875,-661.8445192322366,-870.9174775477659,-521.362230172598,-437.6744840945855,False
2.30859375,-302.9447454714015,-710.8319272868087,-506.9025836283726,-217.98780197015017,False
2.3125,391.9505903010927,-729.0061715030216,-522.2545610273471,273.20227135728237,False
2.31640625,509.28735855283236,-946.0619410786229,-567.1364364279392,396.9544746139055,False
2.3203125,-62.279777198544224,-998.0686916315693,-618.0368286199872,43.79653022569127,False
2.32421875,-648.505815262178,-952.2744869082683,-556.9988032310615,-424.85491054396596,False
2.328125,-302.8191431525455,-976.7142719524478,-588.4046884061012,-181.63236874885544,False
2.33203125,364.6784342189598,-908.268459666097,-560.5054745204341,284.82459907405996,False
2.3359375,276.43264138994016,-592.5779998149646,-443.92491330042117,139.67129867194177,False
2.33984375,-123.83772203646373,-612.8774119479351,-497.8225271457329,-56.012945454996036,False
2.34375,-480.85199504410326,-925.7389255356488,-617.597868468441,-265.26953411137225,False
2.34765625,-431.40073146516204,-793.5019758953641,-528.2203792135903,-301.4078224665049,False
2.3515625,143.44598516092358,-485.50014521464107,-420.59781457926385,59.816986631668904,False
2.35546875,459.02684849415516,-456.86180311279145,-452.7204436939171,297.74837426367355,False
2.359375,143.05668950677574,-824.6843787197839,-551.4441941803503,185.63164315254548,False
2.36328125,-410.20054165776463,-998.452981216045,-611.4379301596264,-192.18022138437004,False
2.3671875,-434.890438783724,-953.6086914122109,-540.4099452366783,-289.74349482886225,False
2.37109375,140.8366819336772,-772.8340485174276,-463.8447734174704,75.1034505287816,False
2.375,695.9111825288426,-913.3183047704798,-649.1575524012636,536.9594510171224,False
2.37890625,188.82666331568186,-994.3397288182151,-638.3363194931937,204.7603338458369,False
2.3828125,-619.7039576593212,-861.7609671628921,-528.2331598705897,-436.3525301207118,False
2.38671875,-507.72718780502686,-894.9996330145802,-570.4548855768057,-369.03839334736455,False
2.390625,0.0,-881.7051489439629,-524.8025533932059,42.98216268236479,False
2.39453125,0.0,-576.2902570499908,-454.59002257484894,214.65604351690777,False
2.3984375,0.0,-592.7171340400287,-506.21332078462643,129.3807907020663,False
2.40234375,0.0,-918.2428158096538,-628.369176392153,-144.48132501564217,False
2.40625,0.0,-981.4874879345471,-579.92149467594,-301.97295192513127,False
2.41015625,0.0,-960.5294862024631,-553.7610413201227,49.83070810378769,False
2.4140625,0.0,-985.5115608976315,-568.0662333754273,324.9436011609541,False
2.41796875,0.0,-989.6990926188732,-608.5783651021638,292.7340125816395,False
2.421875,0.0,-998.4732194634355,-643.4570431723844,-73.69189983671103,False
2.42578125,0.0,-963.8174711573679,-562.3696883393359,-499.15267614607495,False
2.4296875,0.0,-985.1898949685631,-582.7991707743255,-75.84532089335856,False
2.43359375,11.304053538743137,-974.881668509762,-598.3575398489933,332.42509247254424,False
2.4375,247.26905864668538,-824.4274513375962,-546.9352676527591,167.62282201883164,False
2.44140625,-350.5024808097302,-857.5715605351911,-550.1733872352277,-212.64937555319864,False
2.4453125,-577.835047613234,-984.5667119399341,-593.3392738600293,-385.91810228070443,False
2.44921875,-86.80926474178978,-946.2209856855085,-602.1484851895373,-49.769814525851544,False
2.453125,390.66440348019165,-748.0414503151325,-506.5886672491149,236.14225502838482,False
2.45703125,404.3768991198956,-898.4667378627998,-595.3052397111335,299.9053658899469,False
2.4609375,-90.26139112287876,-998.7749750106825,-700.8147399775669,45.373852589732635,False
2.46484375,-418.41911806784884,-969.9045338920004,-753.4792796113875,-190.2863506344616,False
2.46875,-261.84077560355877,-950.1815421461055,-606.0024555342754,-174.54618040188927,False
2.47265625,241.0712071557197,-911.7668448983641,-519.652292006852,114.75053483816079,False
2.4765625,337.24685554385644,-809.1355892922542,-556.0771479010255,223.63898195728805,False
2.48046875,-192.81611853145787,-924.2484395976994,-567.725059307683,-87.75549621079209,False
2.484375,-590.1916239394494,-995.7986889992675,-617.1781414995727,-377.3755092931697,False
2.48828125,-338.40030692986204,-895.4198253036869,-560.2033911076181,-236.9519041478452,False
2.4921875,276.39061498519715,-783.3974598644854,-530.6457735624466,152.65295703744965,False
2.49609375,399.6859524745147,-801.5457132828715,-540.6183711543157,259.1076882210658,False
2.5,-86.66864021868514,-867.8068678656452,-579.1787599384995,-0.04810682074838368,False
2.50390625,-509.39966741316687,-981.303316902698,-658.3199047544562,-290.6658818558479,False
2.5078125,-245.22662830754442,-998.2006643700787,-670.180276906702,-122.98732632530673,False
2.51171875,341.4762224735991,-948.9558614256501,-627.085821137529,267.3501690117202,False
2.515625,328.88758550734036,-749.44480436798,-511.3676059756898,177.44075648005432,False
2.51953125,-52.59732719219265,-810.4434185100263,-540.958486973126,-24.482228732373947,False
2.5234375,-461.14882426214746,-987.8553526259767,-644.4412359983519,-266.9919013627762,False
2.52734375,-441.73231710921766,-880.7767482894214,-560.7083442191218,-314.73875776148776,False
2.53125,106.06874399111831,-629.8493702119705,-426.0679237310768,25.103653209315105,False
2.53515625,467.1860812362654,-610.5409495749908,-473.9858342998413,298.87354928427544,False
2.5390625,241.3491775462398,-920.1328415906178,-675.1021509888902,257.1621339351117,False
2.54296875,-418.5600406505616,-996.2331822846722,-653.8569390184349,-218.11531187049812,False
2.546875,-549.2752740240813,-915.7296666119827,-518.1645870849103,-405.95879576288,False
2.55078125,181.15496651445096,-964.5169773927241,-580.1074820793658,121.90549559757065,False
2.5546875,689.3292812328318,-996.9354405273318,-714.5878658264406,526.9034563469052,False
2.55859375,123.9898461821664,-930.2402515432334,-611.6480025714199,122.41194842281162,False
2.5625,-541.6678688404194,-934.6575843532536,-580.2663198365584,-365.9155306224057,False
2.56640625,-450.38162956102735,-996.1535407573862,-663.3268888871933,-293.6750320473691,False
2.5703125,16.639205130699505,-905.2639299788652,-538.5253697621009,-2.448052573551852,False
2.57421875,387.2525691986084,-734.039306640625,-466.51411056518555,235.48269271850586,False
2.578125,175.04635423025272,-682.844010861769,-526.9960932731046,139.73702081552923,False
2.58203125,-354.27789572270035,-871.367352018861,-602.6453440685467,-181.52048450566136,False
2.5859375,-539.6034185767916,-969.6886493178489,-579.604955372131,-345.7126927134202,False
2.58984375,-97.71768008523074,-703.2592162415303,-485.1844106717739,-88.66781542813759,False
2.59375,432.04759558890856,-625.9091712226071,-476.8654179797186,273.7437860532902,False
2.59765625,391.60642087161216,-919.3276335593182,-599.6991803599225,335.9589900977445,False
2.6015625,-230.8825163479734,-997.1365413449213,-638.7932448724209,-46.19113203516054,False
2.60546875,-664.7136012749496,-924.2663352922999,-543.878700243774,-454.9766418982329,False
2.609375,-222.4199483426932,-668.3360786610305,-452.2061418401294,-201.2158089862349,False
2.61328125,476.3679266878281,-729.202235113234,-505.437203371078,319.7380199113356,False
2.6171875,317.39139661671345,-757.26722975293,-514.9107895670553,234.86840787525944,False
2.62109375,-360.5316750274457,-616.95854743535,-470.0624866583313,-225.15566868443523,False
2.625,-608.0991856534611,-711.14339957728,-491.1436952524112,-415.15447118025884,False
2.62890625,-122.05487301230008,-850.127402598889,-568.9044664113051,-71.26128334452449,False
2.6328125,363.02579870330527,-615.3496574192761,-486.7092007530672,228.12477348852468,False
2.63671875,305.4353017507783,-464.49701725788975,-479.9739412445825,188.48484855710535,False
2.640625,-156.13137227597363,-727.2675600029759,-608.6313114718135,-45.74839429327921,False
2.64453125,-434.4115361467617,-986.7266306960383,-713.1998320374496,-205.23260929488157,False
2.6484375,-263.81857993911,-938.0810075940819,-646.5687854810158,-154.16596722011965,False
2.65234375,245.2492794550754,-823.5440438449917,-622.5199377784899,134.8250842622688,False
2.65625,464.2253359251007,-954.3391756195824,-730.1603179175314,342.4971362432853,False
2.66015625,49.367374442986204,-999.7534450921744,-862.8488251205591,154.24888740309487,False
2.6640625,-686.2945277209742,-992.6736948327433,-788.5189584986571,-466.8316287503052,False
2.66796875,-564.2438020388556,-952.0808870623399,-700.4096391972673,-461.13306268680617,False
2.671875,195.12668964030644,-951.8398265817666,-786.6895878479429,95.46837325265535,False
2.67578125,331.6391765187237,-976.4086212174968,-809.3963159219923,188.8571613868034,False
2.6796875,-179.6239238855909,-984.1574760980039,-828.4266661293645,-126.05152449143877,False
2.68359375,-657.1613172517855,-999.9552314468624,-877.1671019926596,-467.786343481031,False
2.6875,-413.22820135094923,-999.0683252769809,-911.4136144567971,-315.5360053622116,False
2.69140625,198.66808487402332,-999.7524614954676,-894.2497327001435,110.52056229779636,False
2.6953125,316.4845800650104,-994.5386538006653,-838.6352077070107,150.4939622661305,False
2.69921875,-163.89896467565464,-992.540053189663,-855.8814777513276,-149.8054206818806,False
2.703125,-537.8367000557014,-990.2217968845379,-893.2400557776829,-356.00984741255644,False
2.70703125,-424.71276591685995,-997.7514979283665,-862.9517152972775,-289.379993094555,False
2.7109375,-45.78553252044927,-942.8019439209193,-785.4268881241607,-125.7226157138933,False
2.71484375,289.1220719209419,-768.7232760362655,-776.5860249515799,80.21954874031599,False
2.71875,119.89975301588633,-915.7050170823923,-889.0004559119766,81.59238703302405,False
2.72265625,-526.227576379563,-996.448232291921,-850.1976552485197,-368.7125517908375,False
2.7265625,-633.0330641099988,-917.0795189651752,-740.996066328516,-509.2815463904743,False
2.73046875,27.306286194149422,-792.3264111426479,-728.3817447964353,-51.59958231283953,False
2.734375,496.48748674230865,-875.0385093013673,-766.922989981382,288.019827878922,False
2.73828125,263.04928809058725,-995.5141432860762,-792.452451146838,194.62761863249298,False
2.7421875,-397.7522013490416,-989.3030579485105,-770.026923128281,-267.76250467357465,False
2.74609375,-584.8215052153278,-904.711654750641,-734.2785479108168,-450.07585020907095,False
2.75,186.56331787556465,-980.5810588603346,-807.9798664311439,165.0398970669027,False
2.75390625,493.64465428149606,-925.8043184055118,-730.46875,327.1330585629921,False
2.7578125,80.43669070855208,-578.5917315403339,-616.1392243582895,2.502001768328043,False
2.76171875,-313.5338776805869,-729.1295587612867,-694.0537704571107,-188.82265801354401,False
2.765625,-457.0831123718105,-977.4412393366194,-699.1947860075082,-296.6880570137956,False
2.76953125,-135.40740694817484,-572.9722051069772,-515.4915885194115,-137.86759095348555,False
2.7734375,387.39558375808815,-251.52695937232937,-418.7918118018252,200.21873998519717,False
2.77734375,412.2349177069344,-462.2200504936821,-516.4037105321389,302.217599251465,False
2.78125,-170.1585496875572,-720.3365340596961,-561.4538746337668,-43.65806018433742,False
2.78515625,-459.4297356664327,-844.6644468776706,-556.900831037877,-260.8057636144091,False
2.7890625,-48.678886554221094,-729.5546607938591,-493.14021773135147,1.417094600781347,False
2.79296875,521.699872096661,-613.0124002334879,-483.77366474064524,384.8268464435051,False
2.796875,517.7862898303016,-780.1264941132035,-496.15664057731044,436.8428679820077,False
2.80078125,-243.58200168248686,-527.7011532760805,-401.09434373473937,-115.27452362921194,False
2.8046875,-585.6188341192089,-396.1622220346548,-416.5440524285845,-398.2379314685955,False
2.80859375,-80.76682530965891,-512.89865129622,-439.534043413265,-31.387883069436818,False
2.8125,427.90726882477264,-266.02908455029603,-304.6783799327046,275.7944413130227,False
2.81640625,442.55062005936395,-90.71783960673301,-283.215405055854,296.3584030872299,False
2.8203125,65.1600627785069,-513.9019174055366,-441.7882431937492,144.2789723476987,False
2.82421875,-369.81972401110977,-862.6726718921682,-500.99015401812966,-170.22798221752532,False
2.828125,-234.2932124435356,-596.1317943283788,-374.67821484708827,-153.53664416356366,False
2.83203125,432.09242375396775,-527.3671178732756,-351.89000789738736,304.168995505738,False
2.8359375,631.6899866191327,-718.6439568645852,-411.37440487090277,495.5117943333028,False
2.83984375,201.13586939934075,-884.9422849297247,-506.4688174806953,283.33901037533576,False
2.84375,-493.3670112871597,-805.9865331900104,-398.97415632439566,-278.558313097073,False
2.84765625,-397.74102411373764,-678.3059937164265,-303.8041407394549,-279.6607461695764,False
2.8515625,255.6241761632432,-478.9369620620193,-286.14241001938103,168.978367310539,False
2.85546875,484.50861448482306,-448.5472515634533,-277.7667880567419,337.25860018494507,False
2.859375,24.025362965068368,-435.88028447762787,-296.7437941605115,78.40192718189171,False
2.86328125,-518.2980738417872,-450.9532616221846,-325.95290397248675,-301.57952412561804,False
2.8671875,-333.02533840495664,-615.0462993872849,-385.936581976407,-184.95767076669514,False
2.87109375,231.15130650256378,-555.697266340343,-339.88875700082406,176.6676792745086,False
2.875,496.37666818001463,-412.49250082026003,-299.79926281513247,340.55426449380417,False
2.87890625,221.108605290868,-753.5108441238859,-427.56525597836037,233.96719484418875,False
2.8828125,-282.87001358198023,-997.8995739416738,-527.4940316544073,-89.03565079050178,False
2.88671875,-336.46109915766345,-937.7715455330983,-510.8800912626656,-171.91761992232802,False
2.890625,-25.64755238218777,-548.4925396872329,-314.1320551901477,-64.63491155498413,False
2.89453125,376.58400798132095,-364.57789871314554,-270.6314178194817,215.85178759461604,False
2.8984375,260.0018670453852,-733.937239853574,-452.0216727486723,257.8981921373306,False
2.90234375,-415.88901811458777,-892.240645690944,-482.2285231338103,-207.29510125213585,False
2.90625,-586.0576180220669,-694.0662531665853,-393.56023140871076,-395.3440585513063,False
2.91015625,44.543160461939934,-584.5359641107618,-369.6480416768404,27.927708384202173,False
2.9140625,552.4264088060032,-723.6312924887841,-444.1648617278581,393.155550437191,False
2.91796875,245.18812568672934,-697.6360832869156,-441.11373430060434,215.55024068909475,False
2.921875,-378.1468537304664,-743.9265883954188,-448.9698404212703,-200.01534410862533,False
2.92578125,-431.84056338511783,-963.3683847458339,-533.5404092525333,-235.77990396280978,False
2.9296875,213.5354173502167,-997.2146031562843,-644.8691303717495,249.93326445374495,False
2.93359375,458.4870332909876,-937.2883905954343,-534.1963182109504,346.7305631695202,False
2.9375,154.92107143129655,-803.592250164052,-414.85915372054694,110.19162371429007,False
2.94140625,-225.78068964793675,-950.4073521052069,-576.6430476284947,-62.747806758179706,False
2.9453125,-531.5019795926931,-994.953791222836,-579.2843922636125,-323.7783371230619,False
2.94921875,-179.77115001335062,-891.1627500858255,-461.56518800541653,-151.2618725205981,False
2.953125,356.5827775912587,-714.8046147734556,-414.42157240988587,200.80326468265474,False
2.95703125,365.67049581858134,-806.3265297849774,-505.374551241454,276.4570524718441,False
2.9609375,-211.93331715068368,-999.7749351899188,-547.6053354577433,-67.92048222706325,False
2.96484375,-626.5574750217451,-994.2268781854666,-488.9199229479491,-418.4322044001404,False
2.96875,-220.07863050909535,-970.0550241881333,-496.31699664647175,-163.59699050405933,False
2.97265625,484.9239065742889,-992.9079696847149,-578.549377270022,369.51218610746554,False
2.9765625,437.335828767855,-966.835920808662,-519.5794760445916,373.74212884186915,False
2.98046875,-311.0751558494079,-908.2984444626725,-452.0921042340679,-184.11863296987548,False
2.984375,-638.4763478970822,-973.7709929343182,-516.5347375358625,-436.88522225231964,False
2.98828125,-205.69453425425746,-986.3703276643472,-564.5816106539553,-123.32646765130013,False
2.9921875,301.90970367629103,-843.8367055399982,-484.0197129471371,184.4529664322885,False
2.99609375,325.9249052265034,-831.4560692203892,-437.8414633332825,197.27170022414003,False
3.0,-115.45249502121231,-905.1503984937737,-530.3832724655872,-27.8113161072366,False
3.00390625,-474.3542359754609,-983.0303934959102,-644.6287154918508,-252.466592286885,False
3.0078125,-352.81947697930656,-956.4042816143481,-550.2282302031193,-238.08524600170918,False
3.01171875,159.496028657755,-755.0393736552371,-434.64148478987363,46.780938129463465,False
3.015625,438.30166112196315,-734.2527955606763,-481.5603635087291,275.8743161320352,False
3.01953125,167.9533701242217,-957.4144354321817,-660.3063528186424,222.73994513795628,False
3.0234375,-478.36266080911975,-995.0364133462032,-618.3796788205042,-266.45300959131976,False
3.02734375,-533.3894718669882,-899.7844313690331,-454.4042122260713,-422.30861711787327,False
3.03125,216.79121186744598,-816.8563796201623,-477.368274344555,107.22831509049567,False
3.03515625,677.7202776410761,-957.2119525098425,-629.63546792979,513.2963726213911,False
3.0390625,35.486529851742766,-951.4291898596783,-562.758000396777,67.34078609525699,False
3.04296875,-567.355768497621,-950.0416263190801,-552.1694293644016,-376.8236235436745,False
3.046875,-410.52396613852096,-995.0930744777041,-588.3450168725583,-263.61974437454217,False
3.05078125,52.87586389596814,-891.1848155559455,-468.31987017954157,5.4127624832132835,False
3.0546875,345.6177309222775,-632.4165278106306,-401.68155096866985,188.83223703035344,False
3.05859375,113.25672119155527,-752.5744221334616,-467.489702073033,107.51215174456755,False
3.0625,-384.14166701638993,-976.8675938148577,-596.4439819619095,-202.55230826898426,False
3.06640625,-410.34206035969356,-995.4266925970577,-620.4786741927115,-240.1092495765169,False
3.0703125,43.05572379364546,-902.347207491454,-490.91955442711514,16.824809146471736,False
3.07421875,352.3626708239226,-719.3070137956294,-426.47161566429617,177.58802773241973,False
3.078125,335.5776149915309,-901.0439913897028,-625.1197232363578,296.91001986624855,False
3.08203125,-248.49530568039617,-996.6846233671102,-659.8644496436638,-52.405764282062634,False
3.0859375,-712.6449642709987,-930.3347662449639,-463.20215690239286,-513.899175257142,False
3.08984375,-108.89827570266272,-806.6088433801775,-473.14453125,-118.94993528106508,False
3.09375,487.66766449075203,-876.77589875702,-549.9304090426994,321.79194867079724,False
3.09765625,261.22218269289465,-902.3544801458918,-528.2794187217678,205.73653867430716,False
3.1015625,-314.9202440178244,-948.8503483243804,-571.8323655536565,-164.07996629303503,False
3.10546875,-576.996844383317,-991.9061317299474,-580.5057213137895,-400.44367961024295,False
3.109375,-89.97915021478056,-942.0859036424953,-560.9461610835165,-75.44650180446195,False
3.11328125,466.54751833185816,-922.1397365439202,-543.3452588969601,299.80015699395676,False
3.1171875,331.0475638753663,-967.1112980805915,-565.9223204202783,233.13626426870957,False
3.12109375,-305.8785163880326,-915.2200144880815,-549.1357225155658,-178.7977324578806,False
3.125,-381.3506070401203,-971.813009562706,-705.6642294133806,-182.12679002678243,False
3.12890625,-105.58460576967099,-984.7172320420278,-618.9853061382157,-55.61515091830973,False
3.1328125,209.50263921633706,-715.6624101583959,-432.8516268769456,58.024520701718245,False
3.13671875,319.33292875091513,-726.6633079891404,-534.6734202458666,212.62195264360014,False
3.140625,-195.0067206480436,-967.7650620250122,-592.1909992197992,-79.28710460604627,False
3.14453125,-638.1556953706812,-949.7097733983945,-542.8569776469601,-451.7653712916616,False
3.1484375,-289.95497988455315,-784.3209379482817,-466.8451010445916,-237.1921103860182,False
3.15234375,380.8108807017611,-764.2848047781101,-531.4113694718288,244.72655057761568,False
3.15625,488.07551201130747,-973.6714386673686,-595.8472578282366,358.6728442306812,False
3.16015625,-49.438133793950676,-998.9436767488708,-625.4230658077463,50.30703716350263,False
3.1640625,-547.7401478184898,-981.5274577279941,-649.9552791363997,-332.8361897776523,False
3.16796875,-229.84461318062506,-998.0635067261323,-648.5179760941887,-143.72279311897205,False
3.171875,371.9087641924063,-950.3441634682883,-599.95095131089,271.7533439903553,False
3.17578125,279.20620526721405,-708.816567440636,-471.52052366927114,146.23018976620682,False
3.1796875,-123.5364080239425,-752.2705093027071,-502.39231882896905,-64.6712913156931,False
3.18359375,-451.8640313243639,-965.4361585896028,-641.0910257070291,-272.06507485012816,False
3.1875,0.0,-897.9139881043218,-567.3930657505189,-270.7998513040227,False
3.19140625,0.0,-715.8010888287401,-467.07262291704814,84.51360714040469,False
3.1953125,0.0,-670.4418101803809,-497.2259294213924,298.9868715472775,False
3.19921875,0.0,-920.6142078577096,-641.6296993270053,164.65060141275484,False
3.203125,0.0,-998.6334265027926,-607.4070018255555,-304.32428456156146,False
3.20703125,0.0,-976.46726995521,-592.4804449052314,-254.045712090633,False
3.2109375,0.0,-999.7577669564919,-633.2971747287419,228.80107668668356,False
3.21484375,0.0,-994.499586080083,-697.659874183605,474.04038413485017,False
3.21875,0.0,-975.7749669034611,-652.298564163411,119.88744315407155,False
3.22265625,0.0,-980.1676501838908,-618.2723177496642,-344.83028724362106,False
3.2265625,0.0,-995.1177836192162,-615.5604522112685,-360.0284658848126,False
3.23046875,21.656947919209177,-898.7945638577007,-534.4447442488406,-10.042838128508665,False
3.234375,376.30484535236843,-675.3684970546942,-474.55071686912464,196.08274563926872,False
3.23828125,128.42148585337566,-732.1217885865584,-513.3998061897204,100.58802391725675,False
3.2421875,-371.24932761856803,-969.1596877288958,-622.5536760666545,-199.4005254589361,False
3.24609375,-512.3923647143206,-981.0286847797888,-575.6665447404163,-343.1545961268465,False
3.25,-22.655481006211083,-787.8368192795447,-486.7749759644732,-39.65879805197778,False
3.25390625,472.5919585425314,-865.8637874744384,-531.3615637113143,306.9250334780552,False
3.2578125,354.8109920568307,-999.7534748981351,-602.517661820138,315.66288933738247,False
3.26171875,-249.470318270434,-992.5309242804602,-654.2326133484922,-58.86423909435661,False
3.265625,-658.8078212266527,-942.0733560989288,-563.2358642533419,-459.71302665110176,False
3.26953125,-79.27592737074228,-961.8664325746246,-567.7408417012575,-71.82533134690513,False
3.2734375,468.19715903888414,-959.7437712695337,-570.2252281467464,319.080619639696,False
3.27734375,212.31026581380445,-798.6424791933663,-510.11486558647624,153.78749628112413,False
3.28125,-380.2509757279331,-761.1480850743194,-486.10326883164447,-231.19124649005005,False
3.28515625,-576.9339668978514,-871.1160136936917,-534.6519639260209,-385.67226698406887,False
3.2890625,-59.919280689171046,-944.323657444146,-583.1678108976315,-28.34856855084849,False
3.29296875,360.36169652667564,-660.1156840873367,-446.39418812377914,213.51178122329387,False
3.296875,265.2948691780613,-551.3371013631578,-433.03289123542606,181.89558518877428,False
3.30078125,-119.33162159687461,-913.4424167912953,-593.0573392767215,14.743667544790014,False
3.3046875,-368.8722983141824,-987.6285691055515,-708.3613492263322,-148.7058266858176,False
3.30859375,-275.4784929724698,-774.2975211932304,-530.6790370147113,-191.21608797002807,False
3.3125,277.46464297704796,-635.6269576555061,-431.8931410999878,125.79331545293616,False
3.31640625,499.6324328912831,-902.9298544133806,-547.7221450181602,373.9164341006898,False
3.3203125,-128.17648085551215,-976.5062263459895,-538.7512661572152,-2.883845932273225,False
3.32421875,-599.205876182484,-961.6876382743363,-554.8262511443394,-371.77495970971927,False
3.328125,-363.4830661606489,-722.4136294790013,-508.09434516542547,-254.2285716602063,False
3.33203125,266.8309491743987,-525.0551589110762,-488.6566262704493,164.53164582315958,False
3.3359375,421.99162360564304,-622.5943289156443,-486.3921442959165,296.8752980414149,False
3.33984375,-123.74385758759614,-617.2731027194482,-480.56818268526433,-28.073340308722987,False
3.34375,-615.1583101880112,-664.7485139940178,-501.67891016054205,-390.17188978375657,False
3.34765625,-260.85288683845073,-895.8401489630387,-556.8787746268771,-128.2976122802466,False
3.3515625,329.90328323388474,-847.5171753868575,-492.2586170224942,271.9790347256135,False
3.35546875,313.34547588435476,-494.491798830271,-410.9071813766634,190.5783000206019,False
3.359375,-60.075403285799304,-572.6863104571049,-482.9486035925197,4.712124181697492,False
3.36328125,-467.4310564281681,-850.0797428675528,-557.7438330274845,-244.61951737234466,False
3.3671875,-422.3271862314583,-770.6624756306464,-484.03384097256134,-279.8269740130173,False
3.37109375,108.4104986067486,-506.2896438155648,-402.4885130614937,48.894714221456454,False
3.375,447.00901134178724,-512.2699477926815,-445.86271425601234,312.7597728972105,False
3.37890625,197.86549976727505,-884.1187164265657,-604.9520338633866,240.66984008744353,False
3.3828125,-448.23330532367845,-987.9183326211696,-597.9384528369552,-236.98761168889635,False
3.38671875,-543.111997447656,-784.3168545316506,-490.9596732503663,-386.7019394381028,False
3.390625,116.02989609403613,-659.6125296628921,-479.3177034054145,63.49492297185936,False
3.39453125,615.1023942055305,-900.2650822930656,-607.1966611601148,458.03118037327556,False
3.3984375,191.93813470899713,-994.1101055591162,-559.5975534853202,205.1538871276628,False
3.40234375,-531.6780135972409,-902.8649072247741,-487.13965189499146,-339.92935271944816,False
3.40625,-455.73054767618424,-951.6652530692986,-576.3651964618178,-300.2639079382096,False
3.41015625,254.6356316669973,-964.122505360304,-664.677963284779,233.47790019152117,False
3.4140625,434.1430440517794,-786.8592135709163,-530.9345039048193,285.3273064090923,False
3.41796875,110.51664593816713,-752.2545221485209,-476.80882962602925,84.75079340118938,False
3.421875,-379.516199182029,-884.844968467678,-557.3312887239043,-200.7217453798376,False
3.42578125,-558.2967634064827,-933.7893367148395,-539.4626152179221,-365.34340520464536,False
3.4296875,-98.75328819359663,-689.5263880516726,-452.7818737791479,-86.68646418324991,False
3.43359375,426.3141778539492,-621.1078473589239,-468.66070679210156,278.3910675318928,False
3.4375,344.90402719066657,-885.150181506379,-563.6950103867812,303.8749895083018,False
3.44140625,-242.42049319565683,-997.4241986727048,-609.6019425856123,-72.2269666688286,False
3.4453125,-589.1806865958064,-939.4032596275638,-535.2496916871414,-401.54819910000305,False
3.44921875,-209.47226877250947,-672.0372636506531,-411.78305934104503,-192.96820157032107,False
3.453125,491.3654421694745,-748.6161937107062,-517.7932512932613,341.1519133781969,False
3.45703125,420.1274765176718,-930.314617415456,-561.0572126609999,354.82857757370897,False
3.4609375,-394.54573569695395,-739.9130667424612,-463.6749390527713,-253.91286692329996,False
3.46484375,-645.3954002851827,-746.797205028442,-503.7326574223754,-451.4076606630879,False
3.46875,-93.18037828294774,-922.307544103284,-573.0255279708674,-39.47191467769503,False
3.47265625,369.22235294454276,-724.2445798456386,-495.2630876781681,230.7072871043676,False
3.4765625,295.94281857564704,-552.9841191456323,-425.94303675528016,188.8783468517275,False
3.48046875,-168.86936691185448,-755.0344950345653,-520.3327024802375,-56.17952678625931,False
3.484375,-447.9004532136971,-966.9488761215895,-631.613747625206,-244.68174899285845,False
3.48828125,-113.49495873901233,-996.1657015893969,-608.0805867339153,-43.69834030872299,False
3.4921875,362.89609737440486,-935.9471690536869,-534.3263328271884,240.03390010758758,False
3.49609375,421.28633227398973,-937.9793990736785,-546.6132440521609,299.3454968677512,False
3.5,74.43138572442314,-991.5054203928091,-697.8366475972103,168.70275159092296,False
3.50390625,-551.9109555266451,-983.8479710009461,-613.1322201959467,-334.8127422628495,False
3.5078125,-477.6554476725112,-788.4604265377983,-462.50269429439055,-382.6655059741805,False
3.51171875,251.23853219754744,-715.7296329731255,-516.7940330726466,143.87659386248552,False
3.515625,390.6054472897082,-786.8063079904773,-510.0616578027713,266.4650511994872,False
3.51953125,-127.81129822366012,-740.6275752350141,-477.50484525698937,-46.85842788578928,False
3.5234375,-585.1448998901233,-815.1417023066475,-495.7579560455073,-374.79690218303625,False
3.52734375,-355.55792943474546,-925.3579457445672,-548.3423474507081,-250.6257463412587,False
3.53125,207.82189426539705,-823.4527835637551,-505.8625938472807,110.69353521943478,False
3.53515625,480.57366698205345,-879.8404284237273,-552.8116916623428,327.79668734167075,False
3.5390625,34.94924760217007,-998.4844563106611,-581.0582046033757,75.21152694268099,False
3.54296875,-448.9260852708003,-976.6162401473416,-653.6899660259736,-241.86529756363691,False
3.546875,-291.18057118712613,-991.1387772688774,-715.7131898768465,-134.26709049948113,False
3.55078125,3.82693633828287,-843.7099109827096,-539.4710204988708,-46.94450750061043,False
3.5546875,301.78249032915215,-685.4257211648508,-518.0954652879509,141.22692444149422,False
3.55859375,142.18497353407773,-913.3795497837726,-668.5382178023369,144.22831243516993,False
3.5625,-484.9951130146655,-998.0308393930839,-673.1884294690819,-304.10839998740994,False
3.56640625,-583.0568433055336,-963.3489214534245,-613.2015786667531,-440.7779105401508,False
3.5703125,44.371005052874935,-899.1620982878594,-655.7641328854605,-5.648629915537448,False
3.57421875,471.03969390947384,-957.8367262849468,-753.7992466006898,306.91370721294714,False
3.578125,119.94121310737395,-999.6695115065315,-772.0171267435295,102.18872323663166,False
3.58203125,-426.50142162510684,-994.9600504746063,-850.930971302344,-245.32559077798803,False
3.5859375,-505.2170565445306,-1000.0,-910.0732702051032,-327.26193859876696,False
3.58984375,64.81703356757004,-1000.0,-936.8446069286761,66.1905872321919,False
3.59375,332.1702948071817,-1000.0,-911.3530487444299,197.89843535397083,False
3.59765625,4.563411823953118,-1000.0,-901.8423541272433,-20.21526699464351,False
3.6015625,-524.433108508958,-1000.0,-929.8463359651599,-346.58421900752353,False
3.60546875,-729.5057144518855,-1000.0,-908.1484808815902,-538.4319771898645,False
3.609375,-344.00326124900806,-1000.0,-877.5659355542668,-323.32910168172384,False
3.61328125,155.05385698670798,-1000.0,-874.2267439586894,13.094950822549139,False
3.6171875,135.69929934039857,-1000.0,-906.9512914492157,76.42309410860344,False
3.62109375,-461.596092510072,-1000.0,-908.572242018679,-300.2249515474301,False
3.625,-784.6030513673544,-1000.0,-885.4370936851423,-585.0802805670859,False
3.62890625,-266.6081794233,-1000.0,-894.2234140367476,-220.27534985044562,False
3.6328125,347.41309297170676,-1000.0,-874.7548757782932,227.3363819664876,False
3.63671875,302.3837972889452,-1000.0,-870.0806453920461,231.84024148074104,False
3.640625,-447.17719611220474,-1000.0,-853.1349963090552,-327.32914000984255,False
3.64453125,-769.5211457792852,-1000.0,-825.9299102101392,-589.2038160213955,False
3.6484375,-256.16136899493347,-1000.0,-824.3763341148059,-210.03598890932122,False
3.65234375,256.04457382636093,-1000.0,-743.7020777550196,110.0793813125534,False
3.65625,271.69245041241913,-1000.0,-699.8323951211696,139.94336748222133,False
3.66015625,-100.78645976393213,-1000.0,-792.0357909589972,-20.825017977858145,False
3.6640625,-509.1278966624954,-1000.0,-833.0519849339214,-322.55080843303625,False
3.66796875,-373.5632334650836,-999.1010522219509,-675.8672700028995,-308.56585162068126,False
3.671875,230.71619908665,-986.3057109174704,-589.9561184722561,85.94161322259187,False
3.67578125,521.2391911663716,-993.5997064232084,-693.4602979833048,365.1645694397815,False
3.6796875,145.9416117793597,-999.9688248680034,-808.8201720628853,202.2209807803821,False
3.68359375,-565.1211361936882,-999.5429255909687,-685.030904012407,-383.913889863875,False
3.6875,-430.37521293378404,-1000.0,-610.2718017488708,-347.31571689773835,False
3.69140625,334.33161444344404,-999.4361308333843,-667.3878914357222,221.12189874938957,False
3.6953125,463.1074037529758,-990.9912377628648,-576.7373536884995,299.1724434592846,False
3.69921875,-51.26461416692097,-988.5475174988557,-522.8824656221392,-25.044492151739394,False
3.703125,-537.4844532108411,-999.5431342326945,-553.3716860540533,-361.2984382630326,False
3.70703125,-347.78405795995604,-998.3318199853497,-594.3360448014589,-242.90248538792576,False
3.7109375,237.1508087174968,-974.0895609683056,-539.7246884155833,143.0166929419978,False
3.71484375,502.3968463385881,-975.3372961749176,-551.9046962748748,328.4637745505738,False
3.71875,144.9123192089641,-999.9367517511598,-594.3520804083751,137.09969998512088,False
3.72265625,-316.7790629578196,-999.0868049726835,-665.2682405326731,-149.84285105222196,False
3.7265625,-319.7081543386033,-995.6511612879227,-637.0173759213618,-189.48102337931877,False
3.73046875,46.584332270174585,-929.9569756916891,-485.5124848824167,-44.87183079179893,False
3.734375,432.8779737380211,-890.6917016686505,-474.5071467946957,223.6016969762864,False
3.73828125,260.9113661335612,-977.1805564033696,-587.6398972576609,214.09800486051765,False
3.7421875,-364.91843181540713,-999.6804801001099,-620.5766761918569,-230.23065998504455,False
3.74609375,-514.1164980216212,-995.4370301826665,-543.5849683230666,-406.2578024937485,False
3.75,112.67291033985472,-999.9683460696191,-550.7280165539922,42.991521754059335,False
3.75390625,584.214655853223,-999.4800052076974,-625.8874426771762,382.8858226635942,False
3.7578125,254.74139184863884,-999.0869799296527,-601.4187248214613,170.76682241118843,False
3.76171875,-394.80603115271333,-1000.0,-572.879210509248,-274.00041537586986,False
3.765625,-481.28248253609144,-1000.0,-601.3746628349713,-355.28073399920646,False
3.76953125,171.9335091010713,-1000.0,-681.1487670347027,119.89528212176474,False
3.7734375,558.4476411801062,-1000.0,-655.103126239928,361.5996274970242,False
3.77734375,249.13404742056832,-1000.0,-586.1158290635301,148.75016452890367,False
3.78125,-262.7421646104193,-1000.0,-641.5736658235671,-160.88773304454313,False
3.78515625,-333.12047903186425,-1000.0,-790.2423391527286,-174.78465789433525,False
3.7890625,-112.90903316139665,-998.5836207422781,-631.0322495727017,-111.6840081720791,False
3.79296875,285.3281045085092,-978.8378894336342,-501.0146266355069,100.32711329221057,False
3.796875,327.2506359011628,-984.4847388489593,-588.3705610903834,213.00945411211316,False
3.80078125,-221.26460968975096,-999.9680182040502,-644.5226956892474,-121.60429630272556,False
3.8046875,-580.7648245311165,-999.5437601578715,-647.9387568577555,-427.0349781295782,False
3.80859375,-186.82316624191185,-1000.0,-601.3681651355146,-178.83475146120742,False
3.8125,418.38656995864363,-1000.0,-637.8997515852002,250.7480998103864,False
3.81640625,459.15223192486116,-1000.0,-700.9341571674906,338.8153879020936,False
3.8203125,-160.77436601529118,-1000.0,-669.1478738096691,-63.95554429022708,False
3.82421875,-622.4286397608656,-1000.0,-662.2418326898425,-448.5100238638445,False
3.828125,-153.1567373870712,-1000.0,-716.55163155445,-100.5156550444085,False
3.83203125,405.30300501312416,-1000.0,-672.5818781665853,282.1680832048895,False
3.8359375,268.31570330622026,-1000.0,-591.2015903506898,122.52223047781101,False
3.83984375,-143.2747292575337,-1000.0,-665.5540617565424,-99.1737553281126,False
3.84375,-482.18072969121954,-1000.0,-762.228221994598,-318.3634879715254,False
3.84765625,-357.57990620421805,-1000.0,-664.5479794896838,-287.22657203790743,False
3.8515625,203.79766092357465,-1000.0,-550.8915320549994,71.42789866545598,False
3.85546875,449.21755776156755,-1000.0,-609.7633120574411,282.75549908054575,False
3.859375,56.937671205438896,-1000.0,-739.9066286549262,107.21061034977414,False
3.86328125,-439.2577588525453,-1000.0,-749.9034345815785,-249.80382914072516,False
3.8671875,-406.09024005005494,-1000.0,-662.920335581736,-292.42967939277867,False
3.87109375,152.53906846119216,-1000.0,-623.7265403243651,59.45395002899524,False
3.875,637.6018708128586,-1000.0,-774.7650276885454,458.16930119567206,False
3.87890625,88.58066279872726,-1000.0,-749.0347041531865,107.62872836802589,False
3.8828125,-611.441775128571,-1000.0,-705.0074252609571,-439.29917721241304,False
3.88671875,-435.58014794755064,-999.4414493827019,-742.8237371412122,-320.1402670700647,False
3.890625,71.57007309852277,-991.8624063854382,-619.5872971287083,-0.6834208754272986,False
3.89453125,340.36484761285254,-994.5329906681113,-576.7167875755403,169.28322267771028,False
3.8984375,100.78459422880296,-1000.0,-657.8141274054602,83.35487310767915,False
3.90234375,-408.1143628487059,-1000.0,-730.2769188362226,-240.70349101719876,False
3.90625,-494.61531473187034,-1000.0,-679.1895020067757,-347.9004800428824,False
3.91015625,102.28387944057864,-1000.0,-666.9764211091527,60.51230219587377,False
3.9140625,484.1478785786229,-1000.0,-690.6049465495666,325.7596585619888,False
3.91796875,265.53868193749236,-1000.0,-741.1260501236113,241.08032777972775,False
3.921875,-316.11659567284215,-1000.0,-745.0475607755463,-131.69573026034672,False
3.92578125,-670.8442502632463,-1000.0,-627.9604472515566,-487.96971809760714,False
3.9296875,-111.17486274951166,-1000.0,-606.0450184463131,-116.8274439934074,False
3.93359375,461.7074888460952,-1000.0,-669.0098406993594,311.45241477272725,False
3.9375,260.4453797422476,-1000.0,-689.1804600705042,213.47917350216701,False
3.94140625,-374.13783277759126,-1000.0,-676.5234184241851,-218.3317031459834,False
3.9453125,-598.0288911810261,-1000.0,-652.0622796877861,-419.2432943065983,False
3.94921875,-28.732052042638266,-999.8338317684806,-722.5003350189995,-15.21606221767794,False
3.953125,408.38047046682334,-997.6584735246764,-640.8691704309608,257.3463943848431,False
3.95703125,302.7153587970028,-999.0901432402942,-659.0503594360426,231.59854494452753,False
3.9609375,-189.22138365469723,-1000.0,-773.5483483682548,-46.814911183005734,False
3.96484375,-428.544004503525,-1000.0,-806.8751239852286,-231.50653020661662,False
3.96875,-167.01418429907827,-999.9664981000489,-691.7043096081064,-113.71641702783543,False
3.97265625,292.85822949731414,-999.3774727025088,-616.9157292493285,150.4749162571725,False
3.9765625,292.5585007554023,-997.6258359975889,-627.5743408352155,195.5834957956904,False
3.98046875,-259.77664916783624,-998.6361614634184,-638.8746005079937,-130.31585373062606,False
3.984375,-665.2519962840313,-998.1541168469967,-585.8466514314491,-464.337525561592,False
3.98828125,-300.52713988967224,-972.6066261044223,-549.5949259522066,-228.91297381431974,False
3.9921875,383.4305862093304,-967.7212472626205,-615.720599638704,274.64482024859603,False
3.99609375,434.4569902369979,-1000.0,-653.6890420411885,341.6992008664235,False
4.0,-175.93194893785864,-999.56098800322,-634.4855085803016,-63.55581654979551,False
4.00390625,-548.0773426531406,-994.0921307017611,-666.5174083502473,-342.62476536747647,False
4.0078125,-179.39334497275973,-999.5933274706996,-705.8513512353497,-73.24618149874863,False
4.01171875,400.6748074890893,-982.9041954217024,-693.2803940250565,335.7906251907465,False
4.015625,280.87831966869123,-830.9565066650897,-560.1982644823587,184.3687049810768,False
4.01953125,-172.91111480969968,-821.3593449555915,-548.7435356832194,-80.87257307944695,False
4.0234375,-493.33997728070443,-968.9968529674338,-625.1977327440178,-273.5848010583262,False
4.02734375,-372.57826088200295,-911.2881828428232,-523.8533704458074,-244.89941871109482,False
4.03125,162.16269460912227,-700.2133440056003,-440.0108797038088,93.21984393120918,False
4.03515625,435.1238389982145,-648.7345163994781,-471.06297236486694,313.45280714923393,False
4.0390625,116.0782115565102,-917.5206471851727,-609.056880980268,186.85234627754548,False
4.04296875,-506.10897011582836,-978.2868046388567,-561.0548877960566,-285.000573466686,False
4.046875,-426.13969648470885,-920.9374535027011,-501.11051048788306,-284.52031002014405,False
4.05078125,278.2458021462797,-975.0345608824696,-569.1794657571874,234.4410459775377,False
4.0546875,644.1414476445184,-995.115756813881,-667.53966338817,550.4570803702234,False
4.05859375,71.43815191597486,-920.327355290868,-538.8005652163961,157.30882695183737,False
4.0625,-603.1489520701074,-798.1583850605848,-453.6997185363509,-372.7238976086558,False
4.06640625,-413.4809857045843,-973.5664644312355,-556.1854879784214,-229.38417069802222,False
4.0703125,95.31457449487242,-832.2521121696069,-445.3043927786595,90.98460295598828,False
4.07421875,349.4861201174855,-415.7566884250076,-332.1247043790052,234.30276357949344,False
4.078125,107.19180278850263,-390.65823364630387,-368.3154171689965,134.20646517519228,False
4.08203125,-378.1667045003663,-705.7819629585825,-492.22007791516603,-169.95054833429984,False
4.0859375,-470.61639494826954,-864.5469722807178,-487.8933789026735,-272.65236950077826,False
4.08984375,-23.18319554236357,-470.2095382889757,-341.5549698220608,-5.828197964992064,False
4.09375,401.36700866423513,-293.13912087199367,-340.609226685539,278.2144417272006,False
4.09765625,380.2726148554816,-740.5099013017336,-542.9469916486082,387.3103387101697,False
4.1015625,-175.8271511796484,-989.2654428259675,-640.4878329683494,55.618161320351604,False
4.10546875,-596.4357704060611,-870.3746952824574,-507.2650277250046,-378.80002803973633,False
4.109375,-97.38081311614883,-712.1346266099988,-442.7980691460139,-70.49163382447199,False
4.11328125,424.297986166219,-579.3568207483823,-433.9303785213954,300.04146605267977,False
4.1171875,228.73696406497984,-539.8766498195428,-415.7964021582377,198.85037813034123,False
4.12109375,-358.1233549246005,-566.2585088874573,-455.0169260509423,-184.9602882848713,False
4.125,-548.8351294007905,-702.8205321103193,-514.1626599507081,-345.0555606954279,False
4.12890625,-20.81013436050238,-853.0905025809577,-550.9020237532047,26.52214869025455,False
4.1328125,405.5952822648334,-621.0821554812446,-448.0549166482267,291.3166353982267,False
4.13671875,287.01641588269854,-492.8099594949796,-415.6077255195935,231.71793098219192,False
4.140625,-173.66854388581982,-734.2570876190331,-528.1466629723171,-28.079718784336464,False
4.14453125,-387.76237591182394,-975.9833105695275,-657.9386269037664,-161.72702413472103,False
4.1484375,-140.13159212474056,-909.0447261094494,-559.2253383095776,-43.0113129120376,False
4.15234375,235.94333004593457,-463.256284527225,-388.3947391763826,138.57518446313026,False
4.15625,368.5368527017335,-442.45923031877555,-447.657311027437,297.8893243472655,False
4.16015625,75.92114725766083,-924.8183386300512,-685.4057735815225,227.39384785893054,False
4.1640625,-522.2759319012483,-974.55459164403,-603.657620597302,-285.72321898654013,False
4.16796875,-404.8067795382457,-636.9985422448761,-381.88808953542457,-311.5552767494968,False
4.171875,280.52750350994995,-489.00547523577706,-397.02597911389023,179.09221535068977,False
4.17578125,401.71073983893365,-624.4465370925654,-423.76827828389185,298.3957563194317,False
4.1796875,-139.1055517297949,-628.8241047720059,-435.5821652575998,-35.75660166264803,False
4.18359375,-594.3138691666157,-624.0011426413137,-441.2315870696496,-374.22039528903673,False
4.1875,-284.78755026477234,-747.9070254318765,-508.6977370360762,-161.0715314445733,False
4.19140625,333.62867066368574,-883.475503792272,-513.7415017244537,280.3669089931022,False
4.1953125,398.7837856526981,-713.3650166722622,-433.7003361158589,301.4266086634721,False
4.19921875,-91.98106459439663,-601.4157742114539,-442.99430407091194,-17.727711986128913,False
4.203125,-445.6853129578196,-848.4218459093822,-541.8082251098767,-218.2693490759675,False
4.20703125,-306.0466518129655,-899.9720598923361,-502.6607185096447,-127.84825761506532,False
4.2109375,54.90851119941094,-472.6885000495971,-350.8003615820718,14.367188453790746,False
4.21484375,358.27265138893125,-336.9170708820076,-363.10277252485815,232.18215759012995,False
4.21875,122.57027768663778,-735.0629811874313,-482.3498637986815,180.55759560798438,False
4.22265625,-504.8499663311867,-831.8152163960444,-449.7811884804969,-291.32149376983887,False
4.2265625,-525.1639208620742,-594.5604836863631,-362.1297265100415,-386.423611376053,False
4.23046875,112.62889695110786,-468.9443230025026,-349.8421751491638,58.60123083951352,False
4.234375,514.618542121307,-649.7283067448267,-462.76087965259126,375.7831218143389,False
4.23828125,173.5886639108473,-873.482101639757,-519.3337258977078,201.4003376896136,False
4.2421875,-468.3787965640642,-899.736741831736,-468.79217543454706,-264.59678376991513,False
4.24609375,-527.8319418321175,-709.6721475457057,-417.9150396586192,-370.95446674513187,False
4.25,237.78483221937375,-903.9112392132851,-541.9979396993072,234.86137378494476,False
4.25390625,475.8035210139177,-888.6399826219326,-477.7790004845257,381.53436078851786,False
4.2578125,41.19964700204493,-546.8161630333598,-374.28394159748507,46.836669534397515,False
4.26171875,-382.4285187682882,-811.2316117638991,-497.04173715252375,-194.85886635881494,False
4.265625,-548.0403534557746,-880.6755914456415,-451.07876117842756,-361.4616557044317,False
4.26953125,-102.4715818047247,-483.2675297201196,-340.27504225293006,-108.37626186515688,False
4.2734375,442.2955406467464,-462.3737896395434,-374.52674095424857,281.52767233091197,False
4.27734375,280.0634843120498,-699.1547864081003,-424.95914198892075,226.5459874977109,False
4.28125,-361.8907079747299,-809.8810206750137,-438.7205690063633,-211.62767450444056,False
4.28515625,-512.7818690101941,-962.3552205259583,-505.5415838458369,-331.26845585093395,False
4.2890625,-101.24393389085581,-876.5797755348858,-452.11258092914477,-64.36132264070321,False
4.29296875,434.1974995421804,-749.7248611757569,-458.98705753647295,308.44594224034,False
4.296875,393.4463726384141,-908.1679539662434,-544.8298639989775,365.33562584887375,False
4.30078125,-394.18523260094923,-770.4123440075235,-462.2816296087169,-232.71910004120377,False
4.3046875,-666.9893561065586,-679.0069820374016,-447.7606419859763,-480.1205184108527,False
4.30859375,-110.21329211857038,-840.4989925121271,-508.023167930853,-54.9788777915065,False
4.3125,345.27719401399315,-654.3712065288714,-414.0529030664408,231.55371016259232,False
4.31640625,250.89471533161395,-458.00042062171894,-360.71233384965205,171.7945835177329,False
4.3203125,-198.11664479306557,-698.5828696320657,-472.5394702455439,-74.32921089076426,False
4.32421875,-490.7266502487486,-941.648810909077,-581.3694980580821,-293.0703883263643,False
4.328125,-219.6349985883897,-863.6784442337627,-503.79686212382495,-147.2125942345257,False
4.33203125,356.29246753296303,-855.328960043798,-484.62376054892565,254.0796014680747,False
4.3359375,486.5317170905054,-993.1078220850119,-571.4322117915675,403.5974910158396,False
4.33984375,-36.736770683906116,-984.911119817101,-621.6076643762972,76.57556693321939,False
4.34375,-587.123568598538,-965.9386123584575,-539.2930491068704,-395.59892932219816,False
4.34765625,-341.1663597050116,-938.1371322182883,-491.90261462657185,-253.55084372329387,False
4.3515625,287.9896344406208,-810.1283993102186,-483.3592724674948,194.12517955110792,False
4.35546875,586.0982144900232,-924.209233461603,-638.8306230168416,475.416135520274,False
4.359375,-93.74642328470273,-899.754685020144,-542.4191876945733,-12.440531146990601,False
4.36328125,-669.7237072632454,-848.39187582021,-453.1850255409571,-481.840843261689,False
4.3671875,-340.4734307280857,-979.6245259659993,-553.0594984205226,-234.4614968982725,False
4.37109375,205.50882113371384,-909.2224888597241,-505.97073006958857,131.03695891450982,False
4.375,385.7281190864974,-777.968184878983,-479.4402059043462,249.68375875579903,False
4.37890625,55.311159924001956,-940.8455998771517,-590.6388538105848,102.86817991927116,False
4.3828125,-376.56647587247454,-999.8161084470182,-709.6362213784869,-173.12304842481535,False
4.38671875,-293.8707379860518,-987.2516925016787,-707.3258223106916,-138.01799183173605,False
4.390625,25.375513377869,-853.3921090984007,-504.8539305239745,-17.846289229413383,False
4.39453125,319.663981904682,-776.2402737188683,-486.35298317131605,184.04924469310828,False
4.3984375,144.000942345257,-951.7117503681633,-629.5868989210719,172.19484776545903,False
4.40234375,-457.73365153208334,-997.8518247124244,-617.0134863001159,-271.82626424528587,False
4.40625,-549.2316380974545,-967.1336823571603,-508.8104035679404,-396.5135848415944,False
4.41015625,74.59555695656817,-915.7302031192772,-529.1402744819009,49.30859708826761,False
4.4140625,517.3166074998474,-968.4158155673911,-624.6730286099072,384.66929213466,False
4.41796875,150.79345777635353,-999.5915044367637,-579.4729221029421,159.19429152932918,False
4.421875,-439.80441805411425,-995.0377546144397,-590.6002848972959,-258.86998568360093,False
4.42578125,-416.43651497260714,-1000.0,-677.9716900599743,-256.730633040456,False
4.4296875,222.8304062290166,-999.6271274302588,-751.8891017961787,218.55119424139298,False
4.43359375,408.56026002243317,-995.0798406311043,-603.7356227967434,283.1050931948938,False
4.4375,99.39653063385117,-994.9655645773562,-547.6520115923727,78.33653290387315,False
4.44140625,-288.5965718561161,-999.0983651117011,-692.1580296648965,-120.70650478964475,False
4.4453125,-509.2474185653461,-999.7750246078012,-681.8039616652424,-338.10063779987183,False
4.44921875,-152.5435623760299,-992.264087294019,-585.4130111382362,-155.54447307941714,False
4.453125,320.31205291058785,-937.0470090075999,-539.0562407482298,169.99111424696312,False
4.45703125,281.4829335837352,-969.3526765275913,-626.618791537587,219.14442227940728,False
4.4609375,-284.0587349110304,-999.7364855004731,-688.4289921865462,-141.81059170316504,False
4.46484375,-605.9424561351636,-996.8459630329783,-632.916224743621,-432.57226991705835,False
4.46875,-155.39704281948175,-1000.0,-610.6828557544103,-134.0545143869796,False
4.47265625,484.5675049498718,-1000.0,-684.3085129211682,363.2051600267808,False
4.4765625,430.40665822243926,-1000.0,-745.1092591144244,378.61188633103404,False
4.48046875,-339.2850670705653,-1000.0,-676.2407983037785,-213.19595726254425,False
4.484375,-641.6660029872726,-1000.0,-691.6010617598583,-477.17918532917224,False
4.48828125,-140.482229447717,-1000.0,-734.1491900408986,-101.41376825555488,False
4.4921875,318.48052883514924,-1000.0,-661.8046574574254,185.07924802005127,False
4.49609375,296.23878993214396,-1000.0,-668.4116727660872,189.87603404239098,False
4.5,-87.13079821690167,-1000.0,-793.295164957578,11.361219518708417,False
4.50390625,-499.5978877827036,-1000.0,-834.7479441040472,-318.28029978596936,False
4.5078125,-345.13126783588694,-1000.0,-722.0838563285923,-282.39112120963557,False
4.51171875,205.99129022135577,-1000.0,-659.1616548937095,78.64878014932548,False
4.515625,373.22678377945306,-1000.0,-694.9357824613143,245.67119089358746,False
4.51953125,50.42392814769883,-1000.0,-846.9461067207624,122.02673884514437,False
4.5234375,-510.6243943428763,-1000.0,-840.4984677351666,-332.6890079431693,False
4.52734375,-479.8665503677817,-1000.0,-729.4924855596081,-401.9494767503968,False
4.53125,242.18559241850812,-1000.0,-768.9617177008301,130.35660805304602,False
4.53515625,602.7090757004639,-1000.0,-892.4263530475522,471.418229611769,False
4.5390625,-80.63311199029422,-1000.0,-866.2192235571054,-22.23065664677695,False
4.54296875,-655.9857116308326,-1000.0,-852.1898647167582,-511.8424955683898,False
4.546875,0.0,-1000.0,-887.6887849945824,-335.82313452836956,False
4.55078125,0.0,-1000.0,-883.7801505177176,85.53041018724821,False
4.5546875,0.0,-1000.0,-906.089236460813,249.3867201805988,False
4.55859375,0.0,-1000.0,-901.6090330660176,-33.64741265184349,False
4.5625,0.0,-1000.0,-941.2610949708521,-364.47950923650956,False
4.56640625,0.0,-1000.0,-965.5785861578256,-317.94876808387255,False
4.5703125,0.0,-1000.0,-934.5811022578134,-68.0284096111586,False
4.57421875,0.0,-1000.0,-943.0827160717556,53.63809173177878,False
4.578125,0.0,-1000.0,-973.8130381435788,66.93527351141427,False
4.58203125,0.0,-1000.0,-969.4055224961086,-267.2361314056586,False
4.5859375,0.0,-1000.0,-959.2275618342541,-614.1019571309212,False
4.58984375,27.931218498368203,-1000.0,-952.9242724123864,-219.17573073301105,False
4.59375,330.49236824334633,-1000.0,-978.3896650096142,171.00782537617508,False
4.59765625,16.42165372054695,-1000.0,-969.6534186721707,-28.218614561714077,False
4.6015625,-577.486079424063,-1000.0,-951.544628345898,-441.3202896090221,False
4.60546875,-635.0995113730008,-1000.0,-951.5066555518251,-506.2511445488951,False
4.609375,-28.46739593824391,-1000.0,-966.1788563221022,-54.524411737776965,False
4.61328125,367.4466926352094,-1000.0,-958.2885250389147,208.77197772326335,False
4.6171875,120.21229832094677,-1000.0,-949.6919792397906,44.67052133248383,False
4.62109375,-416.62339834688987,-1000.0,-946.6008626560401,-316.90323459055674,False
4.625,-447.61754397929127,-1000.0,-975.2144658104169,-318.4106710585551,False
4.62890625,-109.73761931922232,-1000.0,-930.0102985555793,-128.18712158352156,False
4.6328125,191.0964657533724,-1000.0,-850.3676221635994,-2.684131178279314,False
4.63671875,222.9463410751327,-1000.0,-865.9150374538618,92.80403141396192,False
4.640625,-245.19232832720365,-1000.0,-878.6577577047217,-164.29671524005005,False
4.64453125,-589.6077762082621,-1000.0,-867.3209114805885,-453.08231786411915,False
4.6484375,-191.11602935958675,-1000.0,-834.8831439422842,-189.96063109472286,False
4.65234375,400.32821131806253,-1000.0,-832.3092501964809,235.9877111215816,False
4.65625,379.08984351156687,-1000.0,-815.1730440376457,250.10491057803821,False
4.66015625,-87.95327712962398,-1000.0,-838.2235575822549,-24.28482385392504,False
4.6640625,-479.3670620765169,-1000.0,-812.0095727208217,-331.54374370498107,False
4.66796875,-139.84420305060434,-1000.0,-790.0990917050726,-98.1254554350812,False
4.671875,445.8522263383592,-1000.0,-787.521949109541,314.33956428931145,False
4.67578125,283.26377642792835,-1000.0,-685.7209013821491,142.70413691021182,False
4.6796875,-136.48283582018374,-1000.0,-691.3283968303626,-93.80502180365644,False
4.68359375,-405.0017828268961,-1000.0,-790.6406176112789,-261.0890402861676,False
4.6875,-274.74157039738736,-999.8823260667195,-714.2324297437737,-226.09597710139178,False
4.69140625,246.9214706174083,-998.6137199669627,-594.3611637253556,110.94403902864249,False
4.6953125,475.14093450509705,-999.5510328123092,-660.7388671159657,313.09287036648453,False
4.69921875,118.66513050718777,-1000.0,-825.9122948873,147.17333978413808,False
4.703125,-445.1258550734037,-1000.0,-785.4497194901417,-292.98037432471614,False
4.70703125,-283.0206231019564,-1000.0,-740.270261376816,-220.98359909122817,False
4.7109375,362.1730643770602,-1000.0,-762.3473875194574,241.6782055476285,False
4.71484375,623.1291344305072,-1000.0,-816.2067708810199,458.0446504188793,False
4.71875,32.875259431082895,-1000.0,-781.0392122451472,50.151509659992676,False
4.72265625,-511.884351918264,-1000.0,-787.1176014451837,-369.9259524554389,False
4.7265625,-340.87080379761323,-1000.0,-809.0998552145647,-265.59710162068126,False
4.73046875,140.00442873596535,-1000.0,-679.6317236697583,30.353288229192092,False
4.734375,391.69867032032107,-1000.0,-651.1175923841716,185.6093482938591,False
4.73828125,102.74483029283404,-1000.0,-715.9023931056583,37.42836872634743,False
4.7421875,-377.96342784763766,-1000.0,-792.7913747272158,-282.4194666783665,False
4.74609375,-439.35348367301003,-1000.0,-772.8910077085368,-359.79028645197474,False
4.75,90.45197043630205,-1000.0,-698.4654043405109,-0.04271194184165239,False
4.75390625,519.9050763604871,-1000.0,-737.7637887143663,325.49563736112805,False
4.7578125,288.69448580187094,-1000.0,-783.491646700647,258.7439958872543,False
4.76171875,-292.5926515385613,-1000.0,-799.4540119712507,-129.51783098333638,False
4.765625,-588.5545825830179,-1000.0,-692.010059154102,-462.044552996429,False
4.76953125,-50.06936443199854,-1000.0,-639.4079033962581,-97.57881411381393,False
4.7734375,488.43856586115857,-1000.0,-711.0604793943047,327.46038668584424,False
4.77734375,276.0394517662629,-1000.0,-743.1563451115976,219.32397703781962,False
4.78125,-372.5569842281162,-1000.0,-660.6560959627946,-254.33563467143816,False
4.78515625,-552.9138664960017,-999.8791964408344,-658.1572536263125,-423.76520461672874,False
4.7890625,17.34981134019045,-997.4059872306495,-740.2810809405903,6.514778272265289,False
4.79296875,388.59465246940425,-985.6305888726118,-629.6992189884331,246.46448371597083,False
4.796875,229.07174461680503,-994.6256275943108,-611.6601634034306,163.07943980054327,False
4.80078125,-165.48066761537052,-1000.0,-742.9560168935417,-36.364881710871686,False
4.8046875,-336.75573323617385,-999.7162472530827,-823.3381626938103,-145.14853144838847,False
4.80859375,-168.29953655307654,-995.6077340030216,-653.3012366850812,-103.7278434409718,False
4.8125,256.98645760209376,-985.8390091830973,-561.2296699502502,148.50378845684287,False
4.81640625,364.5965961762956,-996.8670184509094,-674.7224578736342,310.2441841390466,False
4.8203125,-225.39655042500914,-1000.0,-650.9104707624984,-83.09642562149006,False
4.82421875,-644.697368144989,-998.2456266880035,-572.9487240314484,-457.10381865501404,False
4.828125,-267.01184631172555,-979.3711230772752,-542.8610974409448,-210.77733254364279,False
4.83203125,377.34137744551947,-984.4601258240752,-599.8509225064095,274.7649382706629,False
4.8359375,393.08870110868634,-995.9301748870712,-589.3023545278354,317.6517814903553,False
4.83984375,-220.86133503998292,-994.6320656818459,-564.7146425001526,-103.08773062660237,False
4.84375,-593.2326877441704,-1000.0,-602.276829656788,-386.304447144732,False
4.84765625,-164.61194308158343,-999.383910790044,-686.0395079202783,-58.05330831858137,False
4.8515625,376.31928032297196,-991.9354463754349,-633.5601666933712,326.2720169154001,False
4.85546875,275.71813289738736,-985.039255642626,-532.1880233926719,200.98084859716457,False
4.859375,-138.37295101903004,-997.7647019690056,-618.995350747009,-38.011303374130144,False
4.86328125,-461.1129676912923,-1000.0,-697.1121243018251,-246.9593747138628,False
4.8671875,-334.1005586352399,-999.6692730588451,-632.4496124271304,-196.74563020769747,False
4.87109375,132.7340879158789,-995.9696546127866,-525.3483962361247,122.98240019478837,False
4.875,0.0,-995.0803495811207,-564.5255490638161,312.1244678172496,False
4.87890625,0.0,-1000.0,-703.6860077943779,155.4218115729154,False
4.8828125,0.0,-1000.0,-640.6077721546515,-291.813053675528,False
4.88671875,0.0,-1000.0,-585.1618296758637,-272.99005291631056,False
4.890625,0.0,-1000.0,-628.0096866988158,224.4781095485899,False
4.89453125,0.0,-1000.0,-723.9971605649494,485.24175734037357,False
4.8984375,0.0,-999.8758955548434,-709.3770743682476,179.75140007935056,False
4.90234375,0.0,-998.6593576886979,-570.5134219818245,-363.0304030338176,False
4.90625,0.0,-1000.0,-628.5335860719845,-259.8551621062752,False
4.91015625,0.0,-994.8930764806647,-705.9934958624557,256.91727796705226,False
4.9140625,0.0,-939.6503510426841,-555.8259684791234,261.7610744643511,False
4.91796875,37.3192353501895,-941.4020414508069,-480.80477728238276,56.05495016122623,False
4.921875,410.09783031681116,-994.2033367415456,-559.8211594661824,-196.3548144495483,False
4.92578125,71.81877403552679,-991.8083681784885,-572.269559386827,-284.54993714518986,False
4.9296875,-504.6890141428092,-892.1181594127701,-456.1148955408375,8.34787466808082,False
4.93359375,-417.33866064479946,-758.5569478460905,-431.32571444103644,269.16832496909905,False
4.9375,241.6134670007478,-870.7503257195398,-546.1921752437889,232.99456673101577,False
4.94140625,554.576055512529,-1000.0,-600.435775069436,-73.95612967929739,False
4.9453125,85.04135398226713,-992.9098176542852,-539.5654457827188,-281.73172393862166,False
4.94921875,-587.3554887796057,-916.5073339354932,-458.00095712901356,-44.727271881867296,False
4.953125,-427.18689911183003,-899.0798780673911,-514.7425945302008,357.6873864989012,False
4.95703125,241.5536255188305,-975.5003698097876,-566.96743218008,341.6139073754044,False
4.9609375,348.53969867842756,-905.3436007317482,-464.0338028209315,-244.30437894869368,False
4.96484375,39.19337951030928,-875.7596313498902,-442.6631579599524,-425.89818968080885,False
4.96875,-70.3673727738524,-905.7076507370895,-453.69012101696984,-5.787870500015259,False
4.97265625,348.89254164250394,-641.0551596264193,-323.68394164517457,265.229117228513,False
4.9765625,223.2478387101697,-453.84436686416495,-295.30726607328165,191.1324226380326,False
4.98046875,-236.93437104201,-654.0815996860313,-384.66634740470306,-78.00235595777636,False
4.984375,-460.3671927458491,-922.9526047071481,-479.851706999298,-238.67546363768162,False
4.98828125,-97.00153226483334,-981.6904367217068,-466.3522296766268,-2.810523268679038,False
4.9921875,300.39240143526433,-769.3962886094494,-337.3622845386705,227.3223731649066,False
4.99609375,285.92238241667684,-563.9608497512513,-326.94045150546333,233.122970810188,False
5.0,-23.875766847759735,-869.1340676886217,-533.9452338122635,123.02595121551093,False
5.00390625,-484.5685778989654,-979.1266695087896,-485.9064858103674,-257.38934079915157,False
5.0078125,-353.13664220829264,-733.1077697701746,-270.84953784069404,-242.59283126106396,False
5.01171875,270.8781567437923,-449.3270351774602,-243.46916753096212,202.90834027629492,False
5.015625,489.88177048361007,-811.0761096401538,-437.3401804381333,444.23417994979246,False
5.01953125,-187.67090737928822,-726.8506640291173,-378.17582512437434,-36.86550262864729,False
5.0234375,-658.9039097788103,-487.49164887955504,-310.1456218431453,-441.8315252948941,False
5.02734375,-308.8608114088634,-577.3059620028843,-355.3598390191979,-195.33846099186607,False
5.03125,232.67814665104993,-505.63767826349044,-298.0595783004975,179.58204651065194,False
5.03515625,416.8503111265413,-590.9297003761751,-342.9340916287694,345.2450371883012,False
5.0390625,-28.648565546407646,-721.3238937458033,-373.3636527514955,66.70207416104566,False
5.04296875,-455.73092511101447,-775.3057428050419,-418.31766708440153,-263.64987954358173,False
5.046875,-256.3526636514162,-862.9560073556343,-468.36532426977783,-129.4552757981321,False
5.05078125,90.31063057013796,-420.4281590503296,-276.3862037029972,33.42982913792577,False
5.0546875,350.7698998901233,-254.01003435554267,-254.9645404445428,222.26132101925893,False
5.05859375,104.39566332367298,-642.2452953401464,-385.68194926403294,148.9863769829164,False
5.0625,-503.3994294423758,-656.2217439491515,-331.8027575044256,-312.3080496123794,False
5.06640625,-498.40591760392505,-368.22892027072396,-245.63116148821877,-366.4492063507203,False
5.0703125,148.62855620879623,-297.9686403140642,-262.92839511353924,109.00045829645343,False
5.07421875,499.95845049062996,-435.46157034015994,-332.6450739569344,387.23689682273226,False
5.078125,107.47298910265214,-426.6613961022859,-313.5010317001618,135.47466552600258,False
5.08203125,-396.1751381565895,-670.6869045961269,-363.4774924459773,-209.93160843456232,False
5.0859375,-371.52563837214626,-892.6099875721065,-421.615747752869,-224.30544361761383,False
5.08984375,224.01394132088572,-892.1194112631241,-480.51021009148764,195.4491007183952,False
5.09375,455.14375772570503,-774.6788288498809,-398.2944015821481,334.7131605477811,False
5.09765625,104.6865223644854,-686.71941169233,-366.39886408291113,95.9847913296606,False
5.1015625,-417.18862659654826,-721.3914218435268,-401.3231965871635,-260.90473928767625,False
5.10546875,-538.0636508039419,-725.5015579234806,-331.4460752532341,-382.1107670246522,False
5.109375,-49.32904397738371,-450.36258355206934,-281.9983680640337,-61.290951005676966,False
5.11328125,453.37882756226344,-491.5178196725064,-345.6513818520327,324.5382102879685,False
5.1171875,291.3104655643389,-799.2145294759492,-413.8419358900012,268.30199256424737,False
5.12109375,-351.91963502243317,-877.1130041737883,-408.66154067726774,-206.81891233518496,False
5.125,-568.4148405073095,-740.2911816936763,-383.19649655893306,-421.1718010857291,False
5.12890625,8.459319155551825,-842.5129035965541,-431.89078642908373,8.141647225231964,False
5.1328125,530.9516721382463,-976.4746022215694,-494.3976119941094,406.6075523058845,False
5.13671875,377.18835364271763,-955.9242268095318,-543.3261234701197,335.32617974377365,False
5.140625,-379.60853804862046,-798.3729581724606,-412.27807673818825,-244.3934093536351,False
5.14453125,-642.9838139325936,-715.545471735365,-343.23554911640827,-471.31614419599254,False
5.1484375,-91.71968227354574,-841.5985284383966,-410.9361051661784,-54.6694386902582,False
5.15234375,341.686858255523,-650.9333782459112,-355.8045215809227,224.8643325476016,False
5.15625,249.77764753235257,-485.5885795003663,-319.2302455629655,173.97328002914784,False
5.16015625,-198.8561902926993,-697.3313173376266,-417.1766863974179,-87.3122105245086,False
5.1640625,-452.9862617213728,-940.1143298789141,-525.582712691891,-266.96591812969234,False
5.16796875,-167.71364078142167,-921.4505929240172,-465.1852666989684,-100.17118755531986,False
5.171875,302.8752379707911,-821.2457246329814,-381.78875466403673,207.35106795949824,False
5.17578125,392.5901666081675,-890.0162430564034,-451.77288239378584,317.1626954794134,False
5.1796875,7.2128040684898025,-994.5721855065774,-610.7212458319344,123.08344691391466,False
5.18359375,-588.1263305380905,-931.1708532516634,-487.9795242587138,-384.81477502937673,False
5.1875,-380.07370802623143,-844.720393042712,-391.0299488703992,-298.31275178538726,False
5.19140625,323.79419389421315,-934.301939628861,-454.3910976033146,231.6482910931205,False
5.1953125,353.14591186210475,-854.8995753723599,-376.47974673040534,250.46205200448662,False
5.19921875,-109.90449534635337,-723.8673424626182,-392.9079271723375,-88.26030024603295,False
5.203125,0.0,-824.4505509572244,-459.6686006363692,-381.77674286183003,False
5.20703125,0.0,-938.9593892591716,-470.96562609685935,-224.02189951242218,False
5.2109375,0.0,-889.7639952100628,-464.409298315224,150.69899747054694,False
5.21484375,0.0,-697.5929242556617,-425.9497729024234,226.6546302248657,False
5.21875,0.0,-791.2284265702252,-478.9666212689983,29.021842382347554,False
5.22265625,0.0,-976.9683379623978,-609.6447439453364,-179.46556481580393,False
5.2265625,0.0,-991.9144773989744,-616.2213695862837,-124.21556672338542,False
5.23046875,0.0,-892.6636681075265,-462.29128674001953,35.67535061347821,False
5.234375,0.0,-711.5640809081614,-411.4830921514467,173.008341853864,False
5.23828125,0.0,-894.6419425814869,-532.7302226870079,125.2299687557224,False
5.2421875,0.0,-993.7939220638506,-564.3665386838451,-277.7039550363967,False
5.24609375,3.5153212387929984,-922.6825581029672,-496.88558399342827,-397.827088876479,False
5.25,80.98312338809365,-825.2361466663106,-455.9595170671316,20.228202781635332,False
