time_s,TP9,AF7,AF8,TP10,is_gap
0.0,6.8359375,-32.71484375,-30.76171875,-1.953125,False
0.00390625,0.976800933131905,-44.92157695858512,-25.87842938373619,-5.859315391717024,False
0.0078125,4.88471996505524,-40.037512684642614,-18.066704291414883,-4.883229757980834,False
0.01171875,20.507365437877677,-27.34580648576268,-20.507276025453212,-8.301228312122323,False
0.015625,18.063306619285235,-38.57803368011048,-17.578363433131905,-10.740160818378808,False
0.01953125,5.370944729292559,-54.198324625755355,-18.55453847929256,-2.439319960095831,False
0.0234375,4.879236003021425,-51.26917360030214,-18.06640625,4.391848877266068,False
0.02734375,-4.883438425177023,-50.28691813995544,-18.067866742079723,-2.9319825589824196,False
0.03125,-6.343900928172496,-36.12959365271928,-21.48866679637429,-8.299440063633034,False
0.03515625,0.4841086701916621,-30.276119872733933,-29.295682834340475,-5.862057372733932,False
0.0390625,-6.354868852240127,-34.670591514450955,-27.341455081105416,-10.25882393334554,False
0.04296875,-17.093060045132958,-38.57922187576238,-23.928640179007076,-17.573836606489387,False
0.046875,-21.484375,-45.41015625,-27.83203125,-11.71875,False
0.05078125,-17.57717126747238,-47.85108563373619,-23.925662033434048,-13.672947949093572,False
0.0546875,-9.763657926661784,-43.94432896333089,-22.948950512726608,-22.45789747756821,False
0.05859375,0.9756087674723799,-38.57660308131905,-21.486401681621192,-5.860924815357382,False
0.0625,-2.9335620383934566,-48.33701235655863,-29.786348415659525,-12.210756767686016,False
0.06640625,-15.627682372733931,-39.061963525453216,-33.686399154229996,-24.412095426661782,False
0.0703125,-22.94921875,-37.601411571827505,-20.022034797885002,-19.047975845770004,False
0.07421875,-22.94397322109809,-46.385049718076665,-25.8836749126381,-30.757665386757616,False
0.078125,-12.20703125,-42.96526291544589,-35.63863002998535,-22.457986889992675,False
0.08203125,-12.21627053386132,-36.619603542925596,-24.901747667170238,-17.09222808131905,False
0.0859375,-27.33883201646624,-34.177720306586494,-23.93069923353376,-21.000028136827005,False
0.08984375,-20.01333652599878,-31.256969064501373,-31.245353956999086,-26.85546875,False
0.09375,-12.207269683131905,-40.03983740767869,-25.389552050906428,-26.855051492019165,False
0.09765625,-14.162302148187145,-46.38448343938839,-16.60361898576268,-23.43955648576268,False
0.1015625,-25.880217632225477,-34.178018468076665,-27.833819498489287,-34.665345985549045,False
0.10546875,-31.24791371009583,-27.34598531061161,-35.15401468938839,-23.923993001510713,False
0.109375,-24.41263190120857,-34.66939934879143,-27.833283023942503,-18.06926744758286,False
0.11328125,-20.505308952114998,-38.57275834706708,-31.251460402932917,-25.877028589086247,False
0.1171875,-14.65034496505524,-35.158872764450955,-34.672975845770004,-21.47769887230666,False
0.12109375,-18.56058872001465,-40.53083083455411,-44.92348442364036,-7.804989356344992,False
0.125,-29.29925947686485,-46.87172134431083,-47.839342056067636,5.852221569405445,False
0.12890625,-33.206701496978575,-41.49782620513642,-27.833104199093572,-5.873680987914302,False
0.1328125,-38.090974399911495,-33.20932426142953,-29.303461715268877,-25.40147370750168,False
0.13671875,-44.42275232173356,-41.017709890051236,-37.59432042591802,-39.06333395602049,False
0.140625,-31.736731434642618,-43.454527702114994,-33.69092938373619,-40.03620130241714,False
0.14453125,-25.391668144952085,-33.20133675151071,-31.739026353537202,-28.318524251510713,False
0.1484375,-28.80287135483428,-27.34535942364036,-34.180760449093576,-22.46111632484893,False
0.15234375,-13.185888668894586,-31.742871087789172,-37.109375,-22.95401721677959,False
0.15625,-18.55897929637429,-42.47808441868095,-37.109136566868095,-34.180402799395715,False
0.16015625,-27.341604101812855,-37.59095031816517,-36.61948432635964,-35.63621589452481,False
0.1640625,-23.436605821175682,-25.407316338053963,-33.693194607648635,-20.50602414235136,False
0.16796875,-21.964430306949275,-52.737951496978575,-36.61394075604285,-17.577409700604285,False
0.171875,-10.746836946072149,-57.59277790812122,-26.85004439624916,-16.606599399911495,False
0.17578125,-16.60740411173167,-26.855886007980835,-20.024121087789172,-22.95130503990417,False
0.1796875,-23.42766463330892,-27.341961751510713,-25.392413248489287,-25.380342571186596,False
0.18359375,-12.706273064840795,-25.391101546297428,-27.338507990728314,-14.163015527784555,False
0.1875,-23.927748323338218,-25.88337687122322,-21.969973877266067,-17.09288377243179,False
0.19140625,-29.292702420191663,-38.085728871009586,-14.650941047885002,-25.38999911302875,False
0.1953125,-19.530057761567573,-37.59622556388109,-20.51091231992431,-23.924112116194603,False
0.19921875,-17.092526122733933,-34.669458957074404,-26.857256998489287,-20.510792914148812,False
0.203125,-21.48798130112006,-37.11035853666911,-29.792696697796497,-25.39095284555637,False
0.20703125,-26.847958106344993,-38.569211654229996,-41.01598264969786,-25.8671038099707,False
0.2109375,-16.59071379249832,-31.737893796160655,-41.49925680392785,-9.755938654016358,False
0.21484375,-2.9271839521149974,-31.25333806384667,-35.642027702114994,2.4409889920191663,False
0.21875,-0.004470621223219191,-35.161614745467865,-32.71976143334554,1.9437366954312396,False
0.22265625,-4.894257290331441,-41.01228693615333,-38.0907061626381,-8.30841111022096,False
0.2265625,-16.600549159189402,-37.59512289797351,-42.964696636757616,-16.120374635674175,False
0.23046875,-15.630361799963397,-35.16858213991581,-39.05767438003294,-22.955652909956076,False
0.234375,-20.51019683131905,-46.381354004532135,-34.669160915659525,-28.804421170191663,False
0.23828125,-24.413078963330893,-37.595033485549045,-36.625355742232806,-21.970361331105416,False
0.2421875,-22.949576399697857,-33.69569804637429,-42.96839235030214,-18.556833398187145,False
0.24609375,-23.42975092321309,-39.55349342687542,-42.481631111518034,-21.47895064624916,False
0.25,-13.67521306384667,-42.968332742019165,-43.947816047885006,-14.6484375,False
0.25390625,-17.586619180324117,-42.48002168787768,-46.878129434856255,-14.656931680324117,False
0.2578125,-26.864529209012392,-41.99457183131905,-50.29058441868095,-23.936749174067632,False
0.26171875,-36.1434532280094,-44.424473125991945,-47.84700218799597,-35.16790413067696,False
0.265625,-46.37652573361106,-35.64962775819447,-43.460428922129644,-46.37765829098761,False
0.26953125,-37.59348367019166,-40.046811576786915,-46.387910915659525,-38.561701010574986,False
0.2734375,-34.184694595770004,-46.37858221937374,-47.35577060634499,-28.324693708798755,False
0.27734375,-38.07872885782699,-40.0443051488531,-41.501940256680086,-31.736315256680086,False
0.28125,-32.714426492019165,-43.94113992019166,-40.036558952114994,-30.26467508240249,False
0.28515625,-32.22611543787768,-39.06473531061161,-37.108480875755355,-20.014166504532138,False
0.2890625,-31.725882727140938,-41.50152191868095,-36.12136770966856,-14.165401778901911,False
0.29296875,-19.050062568672935,-39.05692628532841,-24.412542395998656,-19.53783711733915,False
0.296875,-25.896460889336506,-33.69876787294757,-22.969038504089607,-25.88400275819447,False
0.30078125,-41.01324066868095,-40.040254665659525,-40.0438311626381,-30.271649251510713,False
0.3046875,-39.05248580845999,-41.00122959966124,-43.93655008240249,-28.812349071827505,False
0.30859375,-31.240820324421655,-29.783844867774523,-37.11462052890191,-31.746805234465604,False
0.3125,-24.42708690983031,-28.82161815983031,-41.015625,-38.094163443050725,False
0.31640625,-33.686399154229996,-38.08307630241714,-41.01848619758286,-43.922422919337116,False
0.3203125,-30.2734375,-36.134302707074404,-42.973965724760426,-28.289018151437464,False
0.32421875,-30.285055442010858,-37.12176747147825,-46.36735551331523,-7.8225688830760784,False
0.328125,-37.58633067623451,-44.912248262299336,-34.17572354918208,-14.182807397530977,False
0.33203125,-27.835011664148812,-36.61870941868095,-30.768275661127387,-33.701539658105965,False
0.3359375,-30.263423308459988,-34.66984641091375,-36.129683065143745,-41.971533229948726,False
0.33984375,-22.456347662210828,-36.12559989775988,-33.694684705563695,-25.865792427745223,False
0.34375,-19.05873514084722,-30.765146226271135,-36.14240943355918,-16.112595754745772,False
0.34765625,-30.27486809879143,-33.21313919154001,-42.95229811389855,-15.628576496978575,False
0.3515625,-31.258196138909234,-40.049493949520844,-31.74275187122322,-18.093229977339316,False
0.35546875,-36.62961825479184,-46.890499099621536,-34.68501775958369,-35.65150584482969,False
0.359375,-41.98050427653666,-56.6072443615333,-45.415997861731675,-40.01152347326497,False
0.36328125,-35.1329133572148,-37.07480219587377,-48.828989320103155,-23.91627372886529,False
0.3671875,-21.964609131798206,-17.58974861518037,-49.29405314388391,-18.54485213330892,False
0.37109375,-17.59289613320322,-23.94147557902842,-37.1102981958252,-13.18359375,False
0.375,-25.390058721311725,-32.23052645081792,-37.60671670901239,-13.190389094259293,False
0.37890625,-24.89101817623451,-35.64214691868095,-45.400022841894035,-19.027470596426173,False
0.3828125,-15.637517739425014,-33.686399154229996,-37.105619678172495,-6.352037458798755,False
0.38671875,-25.389313617774523,-29.78581194111274,-34.17313058887261,-9.770214837789172,False
0.390625,-24.40515106169505,-30.28851839559299,-29.304415447796497,-13.192505188304951,False
0.39453125,-18.061399154229996,-41.00203431148142,-34.67512174395715,-19.53268059879143,False
0.3984375,-14.661105033344525,-31.72263312057441,-39.553761846081066,-20.492909519594676,False
0.40234375,-22.96128942730269,-21.497250389122872,-41.508734520921074,-10.739773364539461,False
0.40625,-30.260919760574986,-29.294371452114998,-44.431924718076665,-9.279012781923335,False
0.41015625,-22.945761469587378,-27.832895570103155,-43.447523728865285,-10.276378572682049,False
0.4140625,-21.00056437122322,-28.322994872733933,-38.09756111518037,-22.955477619712507,False
0.41796875,-23.39318660039034,-29.782386662524395,-44.42897777087399,-26.349646779321176,False
0.421875,0.0,-28.329373512086438,-41.98256017465816,-17.094374256043217,False
0.42578125,0.0,-36.13093483908625,-33.695161571827505,-20.999223184856252,False
0.4296875,0.0,-34.66665736777452,-36.62109375,-23.44274552890191,False
0.43359375,0.0,-33.69551922152536,-36.62109375,-27.341008018983093,False
0.4375,0.0,-36.614656055438566,-36.64183743247574,-25.380610808459988,False
0.44140625,0.0,-32.22209187877678,-50.764112618644326,-18.535314808032716,False
0.4453125,0.0,-29.298424815357382,-39.53838272714094,-5.859375,False
0.44921875,0.0,-30.280679906381614,-31.759203757324666,-5.876273948223768,False
0.453125,0.0,-34.662127138268325,-44.441938909616674,-16.131640601156686,False
0.45703125,0.0,-31.24049247886529,-49.306898728865285,-26.85114714948422,False
0.4609375,0.0,-25.886953859418874,-43.934582354108166,-24.397967281162252,False
0.46484375,-0.059088136627020435,-30.276296603385177,-38.087843568923454,-15.63453034461726,False
0.46875,-30.260293873603736,-31.74641778062626,-39.0612482260575,-20.513445482741258,False
0.47265625,-20.026088161127387,-38.10495254226942,-38.083970426661786,-24.90758927890191,False
0.4765625,-24.903029245254228,-52.23169834966124,-36.63069068355918,-28.803109787966186,False
0.48046875,-25.38919440120857,-41.987180404229996,-43.456315950604285,-24.876592971754256,False
0.484375,-24.43269008843008,-38.58166978537203,-42.970240207074404,-7.323473646462797,False
0.48828125,-36.61411915517031,-43.441532150378464,-43.94376259003785,-6.866160744261995,False
0.4921875,-32.224058952114994,-33.686399154229996,-42.974591611731675,-25.900603665003356,False
0.49609375,-30.75566850927791,-30.753939869071598,-46.3944976309284,-38.552610747421106,False
0.5,-27.344644124244645,-26.37434049395715,-50.75710864539462,-26.35824625755356,False
0.50390625,-27.849585889336506,-30.286372497405846,-37.59765625,-21.50377749610877,False
0.5078125,-37.09411527955808,-37.136079510773364,-37.59002638977904,-31.73160512230666,False
0.51171875,-29.292943493046238,-50.77830136978468,-33.677645975661825,-28.33407277433817,False
0.515625,-27.349233962033814,-49.28898643983092,-26.856154245254228,-35.162419457288046,False
0.51953125,-31.252145898187145,-29.788732746978575,-27.355910089727157,-39.53790586087713,False
0.5234375,-32.695471058032716,-32.216131050479156,-35.64900187122322,-30.740110747421106,False
0.52734375,-20.009456835246002,-25.38752518007569,-38.56801911015138,-16.603112409962154,False
0.53125,-13.691068867118354,-23.45836289904169,-34.665465202114994,-17.580628547885002,False
0.53515625,-24.907529670618935,-35.64020964948422,-33.205717960309464,-19.040375789690533,False
0.5390625,-27.84365486518037,-33.209383869712504,-34.68674535913752,-17.596007484892876,False
0.54296875,-34.172296072910946,-36.614626251297075,-44.923722856772265,-27.33451071613868,False
0.546875,-30.243871791643777,-33.20217126747238,-45.871732989226636,-22.447585244613318,False
0.55078125,-15.174093143426113,-32.728613263367514,-32.217710669978025,-15.670242686778979,False
0.5546875,-33.76335344755234,-39.546727886757616,-27.84925804378014,-38.156871356741746,False
0.55859375,-68.34999242245166,-37.58306112936924,-36.12447243106814,-72.22496716395717,False
0.5625,-63.968718288393454,-30.78031653428859,-32.245160284288595,-53.20715809642618,False
0.56640625,-66.4102735591009,-42.507024240065924,-43.94450778817982,-43.4610548091009,False
0.5703125,-68.83263496268998,-58.55870032960996,-43.393608036913264,-45.896768468076665,False
0.57421875,-60.10180975515779,-38.09198774072209,-6.373585853094672,-44.97546284639565,False
0.578125,-84.52719782892328,-41.482447268128546,-21.061364819859,-75.2301833455411,False
0.58203125,-114.22547303252045,-29.768524523867658,-56.61937334994201,-94.20224584337993,False
0.5859375,-97.17190289667643,-21.082644976881525,-45.41507393334554,-75.19826311000732,False
0.58984375,-99.12514711324239,-63.92836348081853,-47.7968420962278,-76.7169033353934,False
0.59375,-101.09508164904169,-46.32934577763535,-21.473943550479156,-104.03520059856254,False
0.59765625,-110.86237568096503,-19.565584370994323,-16.640188667368612,-118.62337412447354,False
0.6015625,-121.07720870147409,-35.097804078541785,-34.17858474676494,-105.41912610442226,False
0.60546875,-113.74802447459126,-9.271684072260859,-33.71291302540874,-83.44628858589556,False
0.609375,-104.47162264237319,-6.875278966764329,-42.979479490935724,-62.019765868201794,False
0.61328125,-93.24693589582189,-28.327703927089054,-48.835516427089054,-66.4265764244949,False
0.6171875,-85.40343958867423,-32.23323862769334,-52.72865260483428,-77.10170460614661,False
0.62109375,-61.97729496658121,-35.659284300036624,-49.79386859663981,-53.17938063655924,False
0.625,-44.91579495513642,-42.97989674891656,-44.429540386757616,-31.736254568378808,False
0.62890625,-41.989058065143745,-48.336714315143745,-42.49820221418543,-30.770063909616677,False
0.6328125,-40.513395411783556,-46.864270509064276,-50.77373935634499,-34.67118759728072,False
0.63671875,-34.171968227354576,-41.97785170794421,-47.343431691768906,-36.127298733824695,False
0.640625,-30.75492340574071,-35.5980963975615,-38.55496527459867,-33.65516441395044,False
0.64453125,-27.807620168096083,-15.649411081903919,-30.288549122131,-18.016421653720545,False
0.6484375,-17.546353785173654,-25.88990397820912,-36.67119451184154,2.905248103979735,False
0.65234375,-4.891570106606881,-30.277190759974378,-56.62185870012811,-6.902245092880674,False
0.65625,-8.315981362158945,-31.7656414518861,-49.28600602568211,-32.69559027459867,False
0.66015625,-15.630215724760422,-44.89996895600623,-34.66796875,-23.41872339086248,False
0.6640625,-18.052457911783556,-34.62719668444424,-34.661531055438566,-14.644145703625709,False
0.66796875,-11.694489428828664,-16.10004821117927,-31.734972990294818,-12.696415253235061,False
0.671875,-1.0162020081792102,-10.308269004074345,-30.310811893426113,-13.226630930308858,False
0.67578125,-18.080354588216444,-33.73441362616737,-46.38671875,-31.73828125,False
0.6796875,-23.924589084340475,-51.72323969587377,-46.362875436809496,-31.712053605490446,False
0.68359375,-23.43016818119392,-37.5695509445767,-36.627203599005064,-20.97654223318379,False
0.6875,-20.479019941856915,-26.40724671132951,-39.05248519716762,-13.193608552832377,False
0.69140625,-9.29963724783312,-42.000055793352864,-35.13133373771593,-17.114760012284076,False
0.6953125,-17.564713136330344,-44.88298059535799,-25.870859131798206,-26.361822754532138,False
0.69921875,-12.685723760443985,-30.745280910761114,-22.97798496866805,-24.408583220253703,False
0.703125,-9.32652058345541,-24.917096800036624,-33.23361463674235,-22.474707013367514,False
0.70703125,-33.670126092977476,-32.24986933864371,-48.33173702351523,-29.28066154703046,False
0.7109375,-23.41872339086248,-43.47580785913752,-44.41794657571873,-21.481245565143748,False
0.71484375,-14.687066025210598,-52.211757283146135,-37.119032131302646,-20.034553454248567,False
0.71875,-32.2265625,-36.59504493033938,-41.498243463117255,-26.838480389351766,False
0.72265625,-32.237023753662335,-25.383650830891778,-39.04971402330159,-19.528925276963925,False
0.7265625,-36.59844260246902,-22.470474825276202,-33.69140625,-18.54753450604285,False
0.73046875,-27.3254204529848,-26.373297349005068,-33.71584564602026,-15.646995456418239,False
0.734375,-20.04707027673503,-28.832377454907526,-43.44075818874748,-24.444105074620033,False
0.73828125,-30.734805610236222,-38.100034858923884,-37.05683029855643,-36.10461778215223,False
0.7421875,-20.503878353323568,-43.430803605490446,-17.09508927890191,-25.372265648843314,False
0.74609375,-19.06039034863686,-33.68470563513967,-19.081832316189924,-18.538606024335202,False
0.75,-25.3788225599707,-31.224428046603187,-33.2149274400293,-12.699246646676434,False
0.75390625,-19.51807656946225,-18.553674159189402,-39.04831322865165,-14.669717657022524,False
0.7578125,-13.18359375,-18.096659300222804,-32.23699458628373,-24.887738829202785,False
0.76171875,-13.203443308231094,-32.258542343816764,-37.13143006470121,-18.05317321117927,False
0.765625,-21.988512053271684,-46.35613970083318,-46.85461396722212,-12.22741728277788,False
0.76953125,-28.79813249633767,-33.17406596204908,-38.07431388481963,-20.99260666544589,False
0.7734375,-24.41644683131905,-21.00324674395715,-33.194779840383326,-19.527673503021425,False
0.77734375,-25.39917878860709,-23.93433503860709,-29.8034857970152,-18.07740397820912,False
0.78125,-28.809845523942503,-27.382554992217543,-37.12815160913752,-22.45217508240249,False
0.78515625,-29.296875,-42.44971087598425,-44.423341125328086,-19.06347399934383,False
0.7890625,-29.295563617774523,-30.751227692196178,-40.529966514450955,-26.88300777673503,False
0.79296875,-28.79787211230558,-26.86082956884721,-41.49050420288198,-37.106694590576396,False
0.796875,-24.88815697865165,-28.80555372756821,-36.599813592977476,-36.119639069462245,False
0.80078125,-18.050759075718734,-27.35522459447293,-26.34841089086248,-29.76012077114997,False
0.8046875,-10.735749805438564,-32.68802002266069,-17.592073338216444,-18.052457911783556,False
0.80859375,-7.79816333285008,-20.505606858900013,-23.94011791714992,-11.71323589725003,False
0.8125,-1.4776297266984069,-19.583556268311664,-30.28157403062626,-9.290129726698407,False
0.81640625,-6.850243487914302,-41.4705256115333,-33.69140625,-14.635323677745223,False
0.8203125,-12.714864016816213,-27.81247973318379,-33.692628219801016,-9.26268011238784,False
0.82421875,-20.529092657022524,-20.07586107741256,-34.183442821827505,-3.4204722978850026,False
0.828125,-28.798341125328083,-41.9921875,-35.630433891076116,-4.443231217191601,False
0.83203125,-24.887918545519746,-41.9449777398828,-30.251144002166882,-22.975446394509554,False
0.8359375,-19.497720340825857,-24.381874027192822,-21.95656201359641,-32.657172736220474,False
0.83984375,-7.352990232707088,-12.781626948121264,-16.15849357996828,-11.736560917866292,False
0.84375,-17.62748065830434,-43.46132304637429,-32.25338622733931,-18.08250048640359,False
0.84765625,-40.007082656183236,-45.33627178325093,-44.40492216588842,-25.36085066265336,False
0.8515625,-25.856255102469024,-12.712300860648233,-31.73714869262345,-12.20703125,False
0.85546875,-16.153963903131295,-20.059051541613258,-31.273247230360738,-12.254688072239517,False
0.859375,-33.1888190120857,-36.631823240935724,-40.989397355490446,-32.17768370795947,False
0.86328125,-27.330308332188853,-41.009515150994936,-30.25755189258683,-12.166706246566562,False
0.8671875,-21.986425763367514,-38.55043504509247,-23.95457205067753,3.873703877494964,False
0.87109375,-27.333497375328083,-29.286622375328083,-35.174192093175854,-8.809567749343833,False
0.875,-23.440122924551336,-25.419477170064706,-41.964646792210964,-16.62516882096203,False
0.87890625,-24.419546462033814,-36.147893395592995,-31.73828125,-25.381028066440823,False
0.8828125,-26.368588294649943,-41.474489562351216,-31.75368999114936,-21.943239562351216,False
0.88671875,-26.865476222245945,-31.23856288886178,-37.093648972184944,-11.708742527754056,False
0.890625,-30.277967729506194,-27.340352327870352,-31.742811479506194,-8.318902168024781,False
0.89453125,-32.22307541544589,-25.87890625,-33.705354588216444,-16.126067226698407,False
0.8984375,-30.76887174395715,-25.89559656923335,-39.5460125873619,-21.49152799395715,False
0.90234375,-33.693850189602024,-32.719731629204055,-37.595212310397976,-24.415284469801012,False
0.90625,-34.64418504509247,-34.655451010574986,-36.6223455239425,-24.892329558459988,False
0.91015625,-25.347048685294837,-29.794127844204006,-37.07477027949884,-20.998657062629714,False
0.9140625,-8.791744872733931,-33.21251330456876,-23.94724023187145,-21.986068113669656,False
0.91796875,-9.794415800677532,-36.60464186389855,-31.778039974745163,-26.856839740508455,False
0.921875,-20.01953125,-30.743508419550754,-45.86762001770128,-27.339547616050172,False
0.92578125,-20.01810065120857,-24.448396870994323,-35.139082814502835,-25.866030860877128,False
0.9296875,-19.51372516480498,-36.10360444134164,-29.31147902932918,-21.494597820530426,False
0.93359375,-13.649535529646801,-26.343358731623255,-34.15288013557616,-24.896386557905814,False
0.9375,-6.372095646020265,-18.57057310741317,-25.42850606383141,-22.962660417811147,False
0.94140625,-16.110777702114998,-24.859783435954952,-40.56364519433254,-28.33908910913752,False
0.9453125,-15.116213500656167,-8.32897596784777,-54.633673720472444,-35.63684178149607,False
0.94921875,-7.40159030130318,-19.105915096822926,-34.175753353323564,-32.73976001228407,False
0.953125,-36.183777581944696,-42.49790417277055,-32.72825561366966,-42.03242309100897,False
0.95703125,-54.69161297152536,-48.82127004745773,-37.603140212033814,-56.68312570576207,False
0.9609375,-56.1607490309486,-46.3853178698419,-39.52136276667989,-71.71570502304358,False
0.96484375,-59.04844198254288,-45.875071053073306,-29.26328573254288,-50.28128552653666,False
0.96875,-47.83069960095831,-38.05166273728865,-18.079818113669656,-46.406091441967284,False
0.97265625,-41.014104988784105,-26.879788929454314,-22.471577578511262,-52.735895011215895,False
0.9765625,-40.49634744285235,-34.72686173358054,-25.858758650354027,-53.15291455891778,False
0.98046875,-30.782241276764474,-53.19424044371073,-19.550193870859513,-31.22158419371073,False
0.984375,-37.14085009461604,-44.419167664967645,-25.418165707789036,-22.504215755097057,False
0.98828125,-48.82401202847464,-39.067983962033814,-35.67743502220289,-38.589299645592995,False
0.9921875,-47.340868535600926,-41.007220232100345,-47.34507091955076,-43.953717267899655,False
0.99609375,-39.569379034288595,-38.113118877037174,-40.97699883263139,-46.856402215711405,False
1.0,-45.892595888268325,-47.357439638268325,-27.867080920390038,-40.49813569134164,False
1.00390625,-43.94084187877678,-45.38333252266069,-39.56419311366966,-30.727443987288652,False
1.0078125,-42.509348963102,-36.61805372756821,-43.90883223081853,-19.575330325260943,False
1.01171875,-51.72526637749496,-35.625933465711405,-32.17386877784899,-33.748749418223156,False
1.015625,-41.47231386002258,-29.810430161981934,-15.625,-51.77202907548984,False
1.01953125,-31.73989067364036,-37.62823529916682,-15.671673285570408,-56.087966804385644,False
1.0234375,-32.23967712275668,-46.824180836817845,-29.81794280689171,-36.57191391466243,False
1.02734375,-36.13790620996523,-31.707718990208637,-39.56606237989568,-22.011708026400072,False
1.03125,-37.59765625,-23.01493688198132,-43.92778766480498,-33.24693708798755,False
1.03515625,-37.617028941967284,-44.93975748489288,-38.07401584340475,-47.879876434413724,False
1.0390625,-43.963552634590734,-50.773649943920525,-34.194887612158944,-57.09546600325032,False
1.04296875,-49.79383879249832,-48.33364448857047,-39.03925276963926,-46.35262281213758,False
1.046875,-46.3488078820271,-46.378820652505645,-31.733542391503388,-35.64137201100226,False
1.05078125,-34.62129546442959,-43.91634287447354,-30.276656347280717,-34.64704624267534,False
1.0546875,-20.524204777818472,-35.15133231665446,-31.236886177745223,-28.317034044436305,False
1.05859375,-25.36558952114997,-33.686399154229996,-27.362109351156686,-27.30202420191662,False
1.0625,-18.049417889351766,-32.20787530328695,-32.69445771722212,-15.08065715986083,False
1.06640625,-13.268302290623856,-26.858926241454036,-26.845096275637896,0.9074126709193017,False
1.0703125,-37.10758675151071,-27.833819498489287,-23.966910965253618,-18.642311675975098,False
1.07421875,-36.575681241233156,-28.345743504909436,-35.15806650035067,-42.48046875,False
1.078125,-24.454119266160045,-35.15052760483428,-35.664559633080025,-42.4947747379143,False
1.08203125,-38.10638314106085,-33.19144177653666,-42.48777076466459,-47.34429601187206,False
1.0859375,-44.90846313633034,-29.290914171702376,-44.92932603537203,-40.98582085851187,False
1.08984375,-40.503023570545686,-27.369590190670205,-47.34352110419337,-31.271280157022524,False
1.09375,-32.66524965856375,-35.635232357855706,-41.02182426142953,-38.061140454281876,False
1.09765625,-17.06772907701581,-32.691149457516936,-42.98612581448758,-30.237106251525972,False
1.1015625,-10.294144297094372,-25.427644003326822,-48.30282474667318,-19.01399735609205,False
1.10546875,-22.48430394692669,-36.65948148423671,-37.114382095770004,-10.247230122306659,False
1.109375,-29.295176163935178,-47.839670647546235,-38.581014094259295,-8.319468446713056,False
1.11328125,-28.83452335309467,-44.430136469587374,-40.4823991046359,-13.713362364951474,False
1.1171875,-36.124020278261,-43.4517559169566,-27.844340360434597,-25.367765223478607,False
1.12109375,-33.6753247743352,-41.935008919858504,-31.282162951329592,-18.99115066174677,False
1.125,-29.31976458066288,-26.337144925379967,-40.00186693142282,-4.925730463742904,False
1.12890625,-37.09038976187206,-16.12204366759751,-27.342289597067083,-19.560458058658366,False
1.1328125,-30.748306886330344,-19.037007921702376,-26.91358682590185,-29.296875,False
1.13671875,-26.361107455136423,-17.115683940670205,-45.86803727568211,-29.295354988784105,False
1.140625,-24.40786323857047,-25.423171122505035,-36.12041397714094,-28.793095596426173,False
1.14453125,-22.486211411981934,-35.6824421179729,-32.21076630501129,-23.900507338018066,False
1.1484375,-30.257342281162252,-47.34557650927847,-27.313169084208276,-16.134205034489074,False
1.15234375,-25.382279840383323,-41.94545460614662,-18.11480817577672,-22.532705872703414,False
1.15625,-22.966207110648234,-28.303324139351766,-32.282624090139166,-43.44344056148142,False
1.16015625,-27.813016207730573,-23.40119855566746,-48.30008502525484,-39.460891959271805,False
1.1640625,-22.4556621669566,-13.187110638695598,-37.09530744521761,-14.147847139565403,False
1.16796875,-20.98179823307411,-14.224486076166514,-33.22456827538884,-10.801156507319305,False
1.171875,-17.143878658517977,-31.78939535265214,-39.06103959706708,-26.93140970251175,False
1.17578125,-35.16370103537203,-48.78490899484221,-38.54888522973509,-52.24162312877678,False
1.1796875,-37.58853618270463,-34.64516858176158,-30.27647752243179,-50.74932976446622,False
1.18359375,-34.692765795718124,-27.370096861075506,-31.262398522859062,-40.49479762749496,False
1.1875,-42.44413750152597,-35.66032744498871,-35.13887418551242,-30.241845110022584,False
1.19140625,-31.211373832631388,-40.47423276986816,-29.76906201359641,-20.52390673640359,False
1.1953125,-19.549281505600316,-24.407505588872613,-24.940045988982483,-25.428327238982483,False
1.19921875,-24.900674718076665,-22.504332330006715,-36.152840883080025,-36.5593395688366,False
1.203125,-24.439546596493102,-35.12736802397448,-41.96500446374069,-18.50202036724759,False
1.20703125,-31.77696702565159,-26.830850529130807,-34.20254727652139,-3.53402607695477,False
1.2109375,-42.467951010574986,-20.05887271676433,-40.5702617137429,-35.71963768655008,False
1.21484375,-39.04978682355183,-30.759902581935975,-52.2533584222561,-56.1596084222561,False
1.21875,-35.66330785913752,-30.25197851812855,-54.13886536348654,-58.0585272271562,False
1.22265625,-42.48046875,-22.47601839559299,-32.22930448101691,-40.95941438915339,False
1.2265625,-42.44544888375145,-27.83903522324971,-33.212930562549595,-20.9694786516511,False
1.23046875,-30.312063667368612,-30.28059049395715,-36.58103698383996,-11.771682155282916,False
1.234375,-43.51106615851798,-32.70608133240249,-22.960901973463347,-29.86109720251175,False
1.23828125,-61.47277045947018,-29.783666042925592,-26.862919785372032,-55.14597710851187,False
1.2421875,-44.92795504486358,-29.305995067295367,-29.290794955136423,-45.38431605932979,False
1.24609375,-46.93079335286578,-32.22036323857047,-27.365447415003356,-37.107825184642614,False
1.25,-64.45786414776889,-30.26553892038518,-34.17020920446222,-36.68428238691857,False
1.25390625,-65.91796875,-27.82055665552707,-31.25,-56.22446977240127,False
1.2578125,-65.9463422926967,-24.440767010773364,-31.281711606543368,-77.62002843076665,False
1.26171875,-74.2527039236916,-32.2520279427687,-40.53073914236916,-72.73183619960047,False
1.265625,-83.984375,-39.49474946400232,-41.495501482100345,-66.40484920535006,False
1.26953125,-83.97436080845999,-19.99950286691998,-38.58566354033144,-65.97376210286578,False
1.2734375,-80.57370826466459,-13.201118585195019,-42.48923116759751,-85.01935361731672,False
1.27734375,-82.99440063633034,-19.025086265107124,-45.390783558032716,-104.47132460095831,False
1.28125,-78.63608141823842,-13.171433660272843,-39.0625,-97.627369786898,False
1.28515625,-85.99329335286578,-9.292841903573827,-39.09504612250504,-88.41300218786242,False
1.2890625,-103.50772690250565,-14.126984240523713,-49.31640625,-99.13373070599097,False
1.29296875,-101.08548540318642,-3.882107171743377,-49.31479672811623,-103.07562940651324,False
1.296875,-104.50887781923335,3.4313210053866814,-48.84314628731001,-117.72418317577672,False
1.30078125,-109.40557904916682,7.348002454907526,-53.220957413935174,-131.77987590986083,False
1.3046875,-118.15714793917475,14.153241689174754,-52.727460439174756,-115.6621538427791,False
1.30859375,-116.2232391016745,12.24569342669127,-50.78125,-98.69959262337584,False
1.3125,-119.70788722494353,22.973062063190504,-50.81701496978575,-117.3037361518037,False
1.31640625,-145.49261238784106,30.782998907022524,-62.53800028039736,-155.28103755607947,False
1.3203125,-140.54905904748824,37.6240031110755,-74.69463272714094,-157.6079064903406,False
1.32421875,-116.75450543246048,45.904755977995485,-70.81815706448758,-124.02817635849661,False
1.328125,-133.7617022981139,47.83546826359641,-76.15739018723677,-125.50598491004395,False
1.33203125,-125.42762982207167,42.94580081105414,-71.7281669165446,-130.86593191112738,False
1.3359375,-107.47528402154673,36.13615056384667,-57.173970111930046,-132.8659090215467,False
1.33984375,-123.09444240981506,37.097483147546235,-70.30400581967588,-148.4375,False
1.34375,-136.65824389955438,33.682762521364914,-67.82787510682456,-148.33550400210598,False
1.34765625,-119.60208252266068,31.25894124244644,-55.676580239425014,-119.59850602568211,False
1.3515625,-112.32650413156931,33.66777156579992,-59.071122934215346,-111.33176110526155,False
1.35546875,-118.11604753172085,27.30312194991765,-56.128336265860426,-112.27329309766364,False
1.359375,-105.45927228300677,16.59524402200452,-49.809426358496616,-104.0307597814808,False
1.36328125,-102.58090751464933,14.661312889122872,-51.29850087552646,-112.28698383995605,False
1.3671875,-115.19339180388536,18.531736910175802,-60.034003832331216,-106.84670937423697,False
1.37109375,-102.998463536898,11.672881426249772,-52.737772672129644,-81.09036305736129,False
1.375,-94.78360762680828,-1.4371855066990173,-53.780083108252455,-91.43651312526704,False
1.37890625,-110.8257761952176,6.403926469129585,-73.224603056522,-127.41151269608741,False
1.3828125,-106.85669906496064,21.938679528703535,-68.29678630287493,-119.0082946117927,False
1.38671875,-85.93568194736922,12.675313921061466,-51.23862435527681,-83.0369013420924,False
1.390625,-85.41410947132698,7.327914463544528,-42.98538071095037,-90.84248678126717,False
1.39453125,-76.0460717187786,8.330823824620033,-47.447775991118846,-96.54637357512361,False
1.3984375,-43.46084618011048,16.086576739226636,-69.27489861823231,-62.04605312099432,False
1.40234375,-44.54008505482857,9.165043828544412,-53.57540311203636,-70.83756915530442,False
1.40625,-71.34512409013917,-19.076945471296465,-19.527852327870352,-80.08322150819447,False
1.41015625,-87.34702726339803,-28.744634062366476,-18.710265118568028,-81.56371243247574,False
1.4140625,-71.6331425115981,-10.657777018984252,-62.52286117194176,-87.28803789029118,False
1.41796875,-31.65646888161509,12.784397078908015,-68.68403151323018,-55.59134039476897,False
1.421875,-9.85986569538546,36.57304947392114,-24.983649447979612,-36.17346534898981,False
1.42578125,-34.67735705456876,23.816876917002382,-46.50501138756638,-46.81115952893243,False
1.4296875,-37.038798792956115,-4.381178994613319,-77.05306424723798,-30.27725243011048,False
1.43359375,-19.073965057147653,-1.0075588071476531,-52.71112776963926,-31.325553498672406,False
1.4375,-26.79448947651529,-8.771358839956052,-47.02449757370445,-50.17691142304523,False
1.44140625,-11.69678434772325,-4.418493779756455,-83.9404436954465,-21.394515513413296,False
1.4453125,-6.382109837560276,-10.353213649438443,-73.16922696163707,0.4416675727125679,False
1.44921875,-14.625834092537815,-34.13653554029946,-55.70721445970054,-10.803833156715053,False
1.453125,-9.299428618842702,-23.91558823361106,-65.93325827458341,-25.402516852453765,False
1.45703125,-15.604256317524262,-20.98226462834951,-70.2831131164927,-28.763649104635903,False
1.4609375,-9.776175666086797,-17.075776195217603,-62.05567985869499,-16.081629251739606,False
1.46484375,-12.722136227339314,-13.208629228850027,-74.2902799395715,-7.256265307407069,False
1.46875,-19.935900828984312,-20.077708934184827,-93.78817910524629,11.24319511841543,False
1.47265625,2.5208640912073492,-35.67964052867301,-103.97618839841604,14.659524640633583,False
1.4765625,23.41872339086248,-44.8317472761399,-96.6759321781725,17.546204764466214,False
1.48046875,18.53179791933712,-21.427151048342793,-95.70884739516572,9.2868810752762,False
1.484375,12.660439525851544,-6.938619034992675,-97.06916198991271,11.751685586695764,False
1.48828125,3.958168814472319,-32.79272197170848,-72.25564061260148,19.99756559772325,False
1.4921875,16.6846564464689,-51.69093200650064,-69.83435215810596,14.646410818378808,False
1.49609375,36.627256060617604,-35.65274766415681,-72.23070523983355,14.158102146460797,False
1.5,38.04337718595495,-37.62045641823842,-63.98460389580663,13.694675168238417,False
1.50390625,24.41716231992431,-44.921875,-70.31404990996215,21.068939518221217,False
1.5078125,25.371311916315694,-44.95084462552646,-70.76376450627174,43.92921826359641,False
1.51171875,19.490269305453825,-53.66667834989013,-59.5949009167277,38.95758942196179,False
1.515625,7.357599388466704,-40.510653430766645,-66.93291898423671,7.784126457303302,False
1.51953125,17.040577504120126,-35.68700215162058,-78.05025121314777,-0.45940103689800404,False
1.5234375,2.8795569340169687,-47.86193434123787,-56.56975075154123,7.8557160051577855,False
1.52734375,-11.163647864783616,-50.76366555652201,-36.59823397347861,20.042391026521393,False
1.53125,7.3778662046786305,-45.90559049395715,-30.26449625755356,26.402952469785752,False
1.53515625,21.96356598684612,-47.85519860526155,-27.7793077237075,36.143720815784654,False
1.5390625,19.527554286455473,-48.83366857031679,-13.651548575505096,39.029238578099246,False
1.54296875,18.483388609332113,-50.311731615965236,-8.336430695333943,30.215272615507775,False
1.546875,0.0,-55.16958198857047,-17.578125,15.110371888924496,False
1.55078125,0.0,-53.228974727995485,-17.568647283006776,6.780650817539523,False
1.5546875,0.0,-55.17900009728072,-14.690282514649331,-10.28448529916682,False
1.55859375,0.0,-56.14578683887261,-27.330636177745223,-19.473877027635353,False
1.5625,0.0,-54.219247133080025,-23.377414850759934,-2.413032707303302,False
1.56640625,0.0,-60.07048632836345,-5.837288783039312,5.81180468654621,False
1.5703125,0.0,-63.46249494521761,0.4742136952176036,-7.8230506660867976,False
1.57421875,0.0,-59.559583009064276,-3.434062986403589,-10.697481287767808,False
1.578125,0.0,-56.656987473676985,-7.801591684215345,1.5066589605078435,False
1.58203125,0.0,-61.01852553904963,-4.879116786455472,12.669442505188306,False
1.5859375,0.0,-56.62184839086248,-3.9118829827412562,5.827454764466215,False
1.58984375,0.09339737724916133,-51.7940278095456,-5.376811956770357,-2.405190940454407,False
1.59375,23.93052039776889,-61.05095340922964,-6.809082329309608,6.799604033771823,False
1.59765625,25.348005077671978,-65.86551346098089,1.4418945610541414,-4.368303605490447,False
1.6015625,12.675284116919977,-50.26125714345663,-5.419495675776719,3.459694548083379,False
1.60546875,6.808756122962827,-41.05469822949094,-19.483682590184948,15.61480698361106,False
1.609375,-0.9316178546359031,-52.28585247474516,-5.833445396905328,12.700498420618935,False
1.61328125,11.7205084443478,-63.4818378330434,1.4701190830433986,14.139054917826405,False
1.6171875,12.192725262085698,-64.89848828625709,2.9439934879143013,8.288263510574986,False
1.62109375,8.264420197384483,-53.18993130264604,6.825029184215345,4.875540289476897,False
1.625,-1.520279453167918,-44.45207231772264,3.930272138039431,2.9167525025941523,False
1.62890625,-16.045685457104927,-49.320161571827505,10.295214790102545,-0.48828125,False
1.6328125,1.5201636132645586,-50.26053986463802,20.977017935081186,-0.5264328798376267,False
1.63671875,15.556198628309138,-42.029536816060755,16.08772645480054,-10.305015840398926,False
1.640625,-1.51658373962339,-51.289559633080025,9.760617904229994,-22.90749295191662,False
1.64453125,-16.572682286898004,-57.12890625,8.324564954907526,-10.682728237731185,False
1.6484375,-8.226449721128608,-57.10816256752426,15.152276511856803,6.373585853094672,False
1.65234375,12.690037166956602,-51.2818403604346,19.541800666086797,13.641981446087408,False
1.65625,11.16072705891778,-54.767971182017945,22.50027896676433,5.319234543810658,False
1.66015625,-7.857951315769395,-76.61834103949215,33.177672263169136,-8.750883394753709,False
1.6640625,-20.030618390633585,-65.35392537233717,26.369035356772265,1.5276708802569736,False
1.66796875,-22.934197462689983,-45.421422215482515,26.887388985533786,18.019464727156198,False
1.671875,-19.00481712016237,-48.332213424032474,35.17151065193505,5.804055136735442,False
1.67578125,-9.253738869941403,-46.394587043352864,39.060532926661786,-8.310616616691082,False
1.6796875,-3.399996852682659,-48.33584999504059,38.588196892357935,-10.676290543169749,False
1.68359375,0.9178281688422594,-47.34100271059534,42.03471925704526,5.41970147233744,False
1.6875,-13.218168664540348,-42.01638994017824,52.23917876709193,17.04316761537053,False
1.69140625,-22.88126530740707,-48.838854490935724,50.2786627620857,3.884791018128548,False
1.6953125,-4.38180488158457,-51.72872365790759,46.393990960523105,-1.9494888947384483,False
1.69921875,-1.0135196354452787,-43.9453125,48.33060446613868,-0.946996791643777,False
1.703125,-10.734676856344992,-43.9453125,45.904070482741254,6.892267327412561,False
1.70703125,-8.745190803729475,-43.9071631988952,47.4014305511048,21.524431766160045,False
1.7109375,2.4510925959836416,-34.19518565357382,57.132780788393454,31.68403771249161,False
1.71484375,4.8316685932063725,-38.17445580021974,58.109402896676436,17.970019656427393,False
1.71875,-7.810503122520295,-60.04661248512177,59.08602500495941,-5.835412470243545,False
1.72265625,-7.332325476484771,-57.03365221380394,60.06467379486358,0.0628271302569737,False
1.7265625,-9.269117304816263,-34.19408377907154,61.525494111295934,15.147001806479674,False
1.73046875,-7.319989143613127,-37.635722707481854,61.988455914872205,17.49987728184286,False
1.734375,-6.353199820316791,-46.36824018227736,56.651712140633585,-0.5344776693065983,False
1.73828125,-7.80311169543124,-41.47386367537997,59.61162104010255,-12.642737994414942,False
1.7421875,-5.445484887154367,-33.708573435497165,70.36400155649149,1.0185267312152841,False
1.74609375,-24.489615998672406,-38.08400023080327,83.6258907861808,11.687753692852347,False
1.75,-43.41375299490294,-37.54650922124893,116.33290349163717,3.8669061317299476,False
1.75390625,-32.66417670947018,-24.88613029703046,146.5107218610755,-5.833028138924495,False
1.7578125,-20.50986898576268,-21.012545636101446,152.7765061344076,0.49856367881340413,False
1.76171875,-21.01278406923335,-24.96075986731673,139.55246816440822,2.9025657312458035,False
1.765625,-24.898111561908685,-38.584799220228284,117.05418607512361,-3.365066398858573,False
1.76953125,-23.895738675379967,-40.942664461637065,86.30131915514558,8.7890625,False
1.7734375,-17.0963708569859,-24.379251262741867,58.04454908479827,8.647641848638832,False
1.77734375,-18.5546875,-16.6015625,44.38730354364934,-22.96464881878355,False
1.78125,-18.597963113440763,-16.609430793352868,34.14034603323567,-26.298339933162424,False
1.78515625,-29.330821917154978,-18.55868125495941,24.364140563007386,-9.283334382439113,False
1.7890625,-37.53482911974302,-19.553543497833118,12.150284164606605,-10.762454316211928,False
1.79296875,-22.430090213559787,-24.97020778016847,-1.4854086076268083,-15.610604599661235,False
1.796875,-15.090817570351605,-40.98224232389207,-6.3956438469051395,-12.169475739378587,False
1.80078125,-4.377364064502839,-33.18381191631569,-17.59529218549716,-3.366467193508515,False
1.8046875,-0.6318776036898004,-28.858634903558567,-21.358184264939265,8.239861584798266,False
1.80859375,-32.76115938587255,-40.01700743529879,6.857992564701215,-5.432847931163401,False
1.8125,-42.881572886147225,-35.12048503021425,11.644984749816883,-19.04073343938839,False
1.81640625,-23.88727429919734,-27.35507557376549,-4.399061479506195,-18.53430146722212,False
1.8203125,-15.673193296786303,-29.814990195629615,-5.394042938945859,-14.130322304370385,False
1.82421875,-25.94858839459962,-36.146748928919926,-10.325911132752942,-7.805531785540038,False
1.828125,-40.463409964061164,-39.076061712168844,-25.433247523959224,-6.279847689155781,False
1.83203125,-24.330193645852408,-42.46848748512177,-36.16076878471586,10.802093824391138,False
1.8359375,-3.9021966367576146,-39.50416757271257,-43.01131031404505,25.33793127784899,False
1.83984375,-2.9358569572880424,-28.357329243728255,-53.251447050677534,12.699425471525362,False
1.84375,-4.438343337987548,-37.14066934856253,-60.075284069233355,13.734463697125069,False
1.84765625,-14.671714534502227,-44.3891557750412,-63.9944690666392,28.252597490538975,False
1.8515625,-20.017385351812855,-34.16681211087713,-70.79219765725142,12.564412710584142,False
1.85546875,-19.507317274385034,-31.265229916300434,-68.8607104639718,-17.072438131370934,False
1.859375,-14.213088405282916,-34.64591368529879,-71.84350894410365,-13.143894633537814,False
1.86328125,-25.966083363852775,-29.773979696941954,-86.42354593938839,-4.432531530397363,False
1.8671875,-44.90828348187035,-27.355076265108046,-85.93070424093517,-12.66812946374069,False
1.87109375,-41.96663738031347,-29.764251606620114,-84.44478339216015,-6.810387380313472,False
1.875,-36.566846901324624,-25.384812837641924,-78.55515962641924,-1.4532194252838482,False
1.87890625,-22.94522499504059,-23.941756269837636,-63.95286248512177,1.4288999553653177,False
1.8828125,-22.03345669863578,-27.767177438121834,-61.148650420786794,-7.356645655939083,False
1.88671875,-36.610811321186596,-12.163845048983703,-88.41592299372826,-15.109984435085149,False
1.890625,-34.12335767258744,-1.9426935504791552,-97.14919214086248,-8.80783910913752,False
1.89453125,-20.96012015122383,0.47981687381737165,-92.84326860350669,-13.240728289232742,False
1.8984375,-12.712479685497161,-1.5270747974272112,-108.97040877929867,-26.360749805438566,False
1.90234375,-16.605913904657267,-15.581485953427332,-128.01236418848808,-24.78703152658243,False
1.90625,-17.525192844717086,-5.817470377067692,-146.52627962293232,1.0537552264542513,False
1.91015625,-5.821374719602637,3.4492630985625343,-155.74607157571873,18.032876590825857,False
1.9140625,2.464058780216091,10.296946057410572,-152.37093303625932,10.739922246978391,False
1.91796875,7.345124668364235,19.508021201817517,-158.24493683672847,10.30965536563796,False
1.921875,11.699078065864974,14.622863985624466,-167.00792504730802,21.974623443413503,False
1.92578125,6.8298574551364215,8.35955501701459,-170.90654422648478,22.440670683788074,False
1.9296875,5.426618865592382,22.48972830067753,-172.8289411566105,17.55344717084783,False
1.93359375,18.583895558658366,29.292702420191663,-167.49715906923336,11.69997339086248,False
1.9375,25.37792843572606,28.294919371452114,-171.4015314083196,7.385585477324056,False
1.94140625,22.39870645257279,22.396560554385644,-174.7574777398828,21.51227167643289,False
1.9453125,8.257267203427332,7.814675702328634,-164.07337851164317,27.829855547671368,False
1.94921875,-1.4582272305896355,8.34489137940243,-166.5546328988128,27.24009119590429,False
1.953125,0.029059037950924738,18.048523765107124,-177.67402161348653,4.329707242263321,False
1.95703125,6.352186479506195,14.128444643456632,-164.4488510861106,-9.747504081975219,False
1.9609375,7.248481803580149,7.335694044912099,-142.5414040562813,-5.875440412876938,False
1.96484375,-8.793768107654772,9.789153038273865,-134.6456320048033,-9.194995616041476,False
1.96875,-9.73522477568211,14.646410818378808,-109.70317340192578,7.820606726484771,False
1.97265625,-2.4475757072880424,14.149873821186596,-71.23148089864493,9.708043398644937,False
1.9765625,-3.9145951596166757,11.668679042299946,-57.602583470670815,-3.86661049182079,False
1.98046875,-5.89534859877617,-0.059250633278398336,-54.14420030481291,5.3732098440456575,False
1.984375,-14.215949602865775,-13.66329140725142,-41.47600957356711,5.867958592748581,False
1.98828125,-26.83371039860823,-11.723101670278353,-35.09315078096386,7.7950933188865825,False
1.9921875,-21.932420658991028,-12.737783401620582,-20.93797567409815,3.868249719602637,False
1.99609375,-13.126965881172557,-22.03154923358054,-8.284925446728316,-4.342433610678753,False
2.0,-0.9765625,-34.61289069652994,-4.793310663111152,6.829052743316242,False
2.00390625,-1.081175036623329,-22.886451228026,14.197351818577184,5.3315734583867425,False
2.0078125,-22.89506462491607,-9.81036101637368,21.95146550540194,-2.910851282579503,False
2.01171875,-11.642502592411859,-19.03105509256435,17.58289046297426,0.9146114813346347,False
2.015625,3.86661049182079,-16.549405252395776,18.5546875,-11.764648377891717,False
2.01953125,-5.3922546904565705,-4.383950779771714,18.548339217863028,-22.433428277406456,False
2.0234375,-10.326866788362937,-1.9896052691814685,17.091989648187145,-16.104697657251418,False
2.02734375,-26.912037010544466,-10.275663273286334,17.602057725614966,-14.168859059314533,False
2.03125,-39.49784909471708,-15.143335269410365,22.944807737059758,-16.09563719823903,False
2.03515625,-27.84544393236479,-16.63062331179038,21.979362591182394,-12.23385661472958,False
2.0390625,-30.768603506683757,-22.958398425578345,23.4535644322621,-17.99296884537325,False
2.04296875,-32.180068039278524,-24.91396736518037,26.91358682590185,-2.2856498065830433,False
2.046875,-22.564536695812734,-27.296659456448758,39.17316277734542,30.143938505234082,False
2.05078125,-43.962002819233355,-17.535207036257095,62.04271505714765,3.2415282323902828,False
2.0546875,-47.281200644341695,-8.808375583684306,68.40041530282915,-32.66656104078923,False
2.05859375,-30.766603647517233,-12.687985153724151,76.69679298137925,-22.82465386331056,False
2.0625,-31.7839709989013,-11.2174145360282,83.96914508369957,1.9857605349295,False
2.06640625,-42.01424256470121,-8.338274859992065,80.58846131470122,9.204562036485992,False
2.0703125,-46.88170593183483,-16.576974083272294,85.44698343938839,-6.8851143334554115,False
2.07421875,-48.36929024179027,-11.196492028703535,84.9632026147531,-17.569064540987608,False
2.078125,-54.71274410784044,-3.963622972364646,85.49741204678631,-15.602050811054141,False
2.08203125,-60.105088210721476,-16.14350264946896,95.765892521974,-10.681744701062076,False
2.0859375,-69.89720909250443,-22.449164864112188,108.85375536951413,2.0143427066166146,False
2.08984375,-85.03724075967526,-20.04814497237822,102.06747258805396,14.564980809730192,False
2.09375,-100.67147538607092,-25.83735927676555,105.59339091970335,-2.556271411295245,False
2.09765625,-117.81925838712385,-17.498965200207532,130.4180948811268,-25.42278366866569,False
2.1015625,-146.29151240043032,-2.013210149240066,139.67347297885001,-31.703231579609962,False
2.10546875,-203.84114384760264,-13.623770673839443,144.56163167968035,-24.83904858399927,False
2.109375,-247.61522161882743,-4.331108036913264,150.44045752456816,-12.702107844259293,False
2.11328125,-259.9285642415156,9.224560615424526,161.18559563457546,-14.279492032518464,False
2.1171875,-294.61958294545843,-1.983348244261995,172.45860071267245,-39.58332935920522,False
2.12109375,-333.5747766835287,-8.317471569233351,192.59740231871453,-46.28419250328084,False
2.125,-349.63110221914485,-11.71875,236.51401343046146,-25.359241239013002,False
2.12890625,-353.98924261238784,-11.657651509949337,274.0504221697033,-19.09673542124458,False
2.1328125,-351.079166237487,0.5451773561008363,299.12744799296524,-29.824736149896236,False
2.13671875,-352.09083801616003,11.748792574620033,358.2681635975554,-37.610173989425014,False
2.140625,-359.9950155553775,17.560391535814563,427.9750434425166,-40.06439602026491,False
2.14453125,-385.3615588090551,14.129398375984252,474.37228305446195,-44.85779609580052,False
2.1484375,-405.7928342737136,8.313746051547335,522.2604748443508,-32.699285988143195,False
2.15234375,-411.5896378568814,10.823448557223035,576.4680846602001,-29.89525187591508,False
2.15625,-405.74025976812857,25.919439882423855,631.6027797011384,-50.3358867137429,False
2.16015625,-401.38891604543096,34.15795895456904,683.7482641008423,-59.1013455126053,False
2.1640625,-405.73698131256486,29.78515625,714.9773321621498,-63.010544943691635,False
2.16796875,-400.7612394994049,29.80518463308002,741.4037106871452,-67.41535862250504,False
2.171875,-377.81315330678143,33.704073010132454,778.9707282796954,-73.80393595876824,False
2.17578125,-355.4174868766404,36.17638615485564,810.2380146817585,-87.88549868766404,False
2.1796875,-345.62015027009704,44.428407829381065,844.5131350428035,-86.84405257164438,False
2.18359375,-329.9679688930599,43.49374995231337,896.1954238482726,-73.67801346098089,False
2.1875,-309.4456417761552,50.34071498466398,933.2513600225844,-63.983411730147104,False
2.19140625,-286.4413747768266,59.11690209554111,960.0011730910089,-67.42304809100898,False
2.1953125,-253.75708027185192,65.4703701531313,967.2824440731246,-74.67448512749496,False
2.19921875,-226.9438961835001,72.73472175088463,966.7996156427307,-68.7572150398847,False
2.203125,-207.868478138543,69.2827371074437,967.28515625,-52.65330773515229,False
2.20703125,-181.0190596292651,59.064089156824146,967.28515625,-37.17345390419948,False
2.2109375,-155.60094539738736,55.71333175322,967.28515625,-49.376047977582104,False
2.21484375,-125.36095795756272,64.8989651525209,967.28515625,-60.53891729422267,False
2.21875,-101.92739210423915,57.06989404985351,967.28515625,-58.988148204312395,False
2.22265625,-79.4515227293536,46.35417262749496,967.28515625,-41.8538664793536,False
2.2265625,-54.58878868339132,40.52460176898309,967.28515625,-17.10355365508454,False
2.23046875,-36.943067890496245,40.01688821873283,967.28515625,-19.595001058643106,False
2.234375,-7.669618945705914,36.065574356802784,967.28515625,-30.708488553302203,False
2.23828125,17.152134405710186,24.38574856558628,967.2794934631172,-21.518351721296465,False
2.2421875,27.92072837506867,19.42538568943417,966.3171773427486,-27.303693233839955,False
2.24609375,43.104519347325564,1.3695163359203464,967.6232246050866,-20.44714960013113,False
2.25,65.99396931079472,-14.597770459470183,942.1573441696423,-10.264039658105963,False
2.25390625,80.65099556678061,-4.862305998962276,898.7181529269931,-12.18396143633256,False
2.2578125,96.74263384682293,-1.0657364913324787,859.0996097326497,-7.822991057803821,False
2.26171875,108.37456438266801,-17.684227743697736,807.8561273023104,-9.818676371848868,False
2.265625,104.05755370467863,-37.17106957288043,761.9387939766068,-19.51247339086248,False
2.26953125,113.92412533189892,-48.38323858000671,713.1348103312122,-16.09700818874748,False
2.2734375,141.71672570271014,-56.171537617118354,669.2032673445798,-13.216497522202893,False
2.27734375,162.18698498443507,-59.59803035158396,628.1435620193188,-18.984761261673686,False
2.28125,175.81486907159862,-64.50355360739792,579.8343867309101,-8.665792570805102,False
2.28515625,181.61797385246902,-73.27616422129647,537.354156414042,12.686818319675883,False
2.2890625,177.77443176616003,-79.21314920573155,495.30504300379965,11.150355217679913,False
2.29296875,184.65986795707533,-98.15897567856054,444.0586044716377,-2.438517364287893,False
2.296875,199.74547859251967,-100.48597440944881,397.2968955052493,-1.90186187664042,False
2.30078125,207.0001344762864,-81.53259690876213,366.12536980978757,7.817685920618934,False
2.3046875,201.06434165751082,-79.61869415896051,349.9848773786089,8.768080384392357,False
2.30859375,181.09398367873277,-85.00072845768221,328.8628167539067,4.8536324643663775,False
2.3125,170.39659536562291,-92.35838502563632,284.9501245574681,-0.518115195629616,False
2.31640625,167.96052405694928,-105.41665236067875,248.12365046847341,-5.818245284746383,False
2.3203125,166.5732008789599,-96.09439376945615,261.865654613395,1.6616404962461089,False
2.32421875,178.5148262490081,-79.27806262589269,287.39874340970823,36.00393939220533,False
2.328125,144.18015721326987,-109.85195567623451,252.79378061481412,13.326445000152598,False
2.33203125,83.94717943142281,-107.88440547175426,229.50363229033144,-46.012885403314414,False
2.3359375,77.72344880173046,-103.60813705517914,231.2487243827443,-65.37475846723738,False
2.33984375,92.33185778714774,-118.80495770175064,198.2246744235696,-56.03850875320239,False
2.34375,99.8983261517274,-62.8414064407465,195.4410154580968,-37.21690834248916,False
2.34765625,62.79994887993652,-35.75859169947507,219.19849272111335,-57.25622954243728,False
2.3515625,28.363230463742905,-56.707684318348285,211.7853086087713,-80.5154411680553,False
2.35546875,36.02432542498322,-68.84223189624916,188.4765625,-71.37856433688884,False
2.359375,16.535754955594214,-67.91496544627053,188.43817476576328,-87.44073148423671,False
2.36328125,4.810746085881707,-75.6808219648416,181.56301501556493,-94.25768374610877,False
2.3671875,-7.865730196697797,-75.06083621360557,167.90991662470245,-97.72348814319722,False
2.37109375,-17.084180963117255,-51.73516135246902,157.63273334020022,-109.38066278688274,False
2.375,-16.03888557181663,-47.92023543370773,143.58902396685386,-110.37445347790258,False
2.37890625,-3.362473438549106,-59.576154111731675,149.37317121787828,-114.23444605307331,False
2.3828125,5.823967679912104,-60.50556645989745,142.50435974981687,-110.21288382965574,False
2.38671875,0.0,-53.725829571794556,130.32939594897525,-87.25342303205441,False
2.390625,0.0,-56.15234375,123.42786134064274,-63.02046972280718,False
2.39453125,0.0,-56.20116293375755,104.00390625,-68.8747780187542,False
2.3984375,0.0,-64.99350388932125,104.00116426898309,-73.60159564220534,False
2.40234375,0.0,-74.17162965230727,103.49345071873283,-50.68700930461454,False
2.40625,0.0,-65.91516716070012,99.59816864280046,-34.20490180369896,False
2.41015625,0.0,-65.42402471311726,97.64209303279314,-38.579881536882745,False
2.4140625,0.0,-64.37301146767992,95.20339895966856,-39.527891669337116,False
2.41796875,0.0,-50.795705008621745,93.25304574482695,-35.62718523965391,False
2.421875,0.0,-53.22265625,91.81439983519502,-32.69731891480498,False
2.42578125,0.0,-53.11642780567086,94.69115301855695,-29.743845188316445,False
2.4296875,0.0,-35.6264699402582,88.8310648805164,-22.97330049632241,False
2.43359375,0.16101308024277175,-32.78775533350616,82.98654662147737,-26.831164888831278,False
2.4375,25.889874174067632,-44.441819693050725,79.51855224356039,-22.94921875,False
2.44140625,27.83757515871078,-45.931700952264684,66.88621538693383,-22.918727252090708,False
2.4453125,28.723651946758835,-51.7578125,65.36456545084845,-17.558305245910393,False
2.44921875,14.17160104033144,-51.7435065120857,54.15916198383996,-14.17160104033144,False
2.453125,16.130627260346092,-49.322188253448694,47.38930026551913,-16.17110128448697,False
2.45703125,18.996235856146615,-50.19950296229323,51.687713159219925,-25.86138141480498,False
2.4609375,11.168505939846183,-34.6797711900293,39.965297249816885,-22.86070044978026,False
2.46484375,0.9258954594701825,-36.67474120467863,27.858854977339316,-8.411056573506073,False
2.46875,-7.2941165670969905,-45.401125595129095,32.238603373161205,-26.451473612128424,False
2.47265625,-2.3532455994781176,-43.966592657022524,34.13408716352316,-39.950901849478115,False
2.4765625,11.801635317478484,-47.36328125,26.858538576573277,-25.789881279374963,False
2.48046875,24.868266532454857,-47.3787708943387,27.303476924719376,-11.669183138116153,False
2.484375,19.471164850759934,-49.85332785890863,20.938869798342793,-3.90911119758286,False
2.48828125,9.271561746551303,-58.093904743102605,11.218904743102607,-4.435005274140877,False
2.4921875,8.280335608939144,-56.061798768159065,9.280264555865836,-11.309330508377586,False
2.49609375,4.865108839956052,-40.97726706990478,9.789229880058597,-24.43176616004395,False
2.5,1.9352425151071233,-34.68883164904169,13.627168787767808,-27.299043787767808,False
2.50390625,-1.0698792669993287,-38.15216230238662,6.24831904642007,-20.001469940258193,False
2.5078125,-16.1345627060188,-48.867647704034916,-9.786906456018801,-17.1111252060188,False
2.51171875,-19.481655908563756,-55.14478494285235,-13.127800397134225,-20.61939920573155,False
2.515625,-11.649902433162424,-50.296098184856255,-4.38514294543124,-37.98892501945615,False
2.51953125,-0.9291739150338766,-50.76861304400904,-2.996031518952573,-22.860760058063235,False
2.5234375,6.376357638253067,-48.86639351767076,-13.209106095113837,-9.248642361746933,False
2.52734375,10.735753340043924,-54.677848760065885,-17.038370470351392,-4.857075860175695,False
2.53125,9.664290918940365,-53.133243825535615,-9.313108719785754,-1.0957790659525117,False
2.53515625,-6.772722915903681,-38.59830049632241,-15.211974207257523,-20.495771626838795,False
2.5390625,3.4635690864768356,-42.48654879486358,-27.337669955136423,-18.45740678218275,False
2.54296875,10.69920992797412,-43.453961423426726,-26.339559060840504,-2.911268540560337,False
2.546875,3.9217481535738266,-43.02454335286578,-22.016051080006715,0.02789667643288775,False
2.55078125,6.39147101239165,-51.735905118804176,-28.833630757080943,4.475901523013063,False
2.5546875,13.253752699063053,-48.32708757744308,-32.68614236174693,17.003739585240798,False
2.55859375,23.89681162447354,-46.42534491736861,-28.329969041842155,3.854748443508515,False
2.5625,19.417547200222792,-52.18436937297809,-29.80789680995544,-3.792547200222792,False
2.56640625,2.4774692612006346,-42.94907926661784,-33.199846544436305,13.177036838872612,False
2.5703125,7.8356578179362755,-40.095302914988096,-32.75454286646219,12.0581595632668,False
2.57421875,11.183758665197365,-48.36319879240132,-38.6075830962876,-9.805662215545116,False
2.578125,4.419566728850027,-51.69835323773118,-43.47580785913752,-15.549893563449917,False
2.58203125,8.269188860022584,-42.44571712102484,-46.39935570599096,-3.9252054339864495,False
2.5859375,3.3733221460507843,-37.15402160394922,-48.28881905977232,-6.768967594076177,False
2.58984375,-3.395436819034975,-44.006470598333635,-40.49837412447354,3.475908001052921,False
2.59375,0.05847572559970701,-53.29412658128853,-36.19778552844412,12.116069010178233,False
2.59765625,8.851353155710187,-63.86321162752548,-45.924665144509554,-1.4746791166910822,False
2.6015625,18.02670471020022,-48.68586114905079,-49.80137903835002,-2.9859313480496885,False
2.60546875,12.153145362189465,-27.842134853964474,-49.37702787378685,-11.169847126213147,False
2.609375,4.40472426638894,-29.3988051638894,-58.170024520463286,-2.3462714303698955,False
2.61328125,5.914214620338155,-43.921320166102056,-67.29027064067937,11.127644461865959,False
2.6171875,13.685704121650492,-40.47548454381066,-54.1231585809223,-3.528601723203931,False
2.62109375,15.503085987516005,-33.24840734749406,-43.56849548998537,-19.025552462502286,False
2.625,-1.5453149320179453,-39.631252432017945,-59.14760036127388,-16.524071732130867,False
2.62890625,-14.61532509880669,-52.7403954365806,-69.82421875,-3.912270436580602,False
2.6328125,-9.228703391091376,-53.637976961637065,-69.86069901918147,-4.937532903772203,False
2.63671875,-1.3727489528016847,-41.9921875,-75.65903513741378,-13.65038621398706,False
2.640625,13.155697073567111,-41.91469673213087,-71.70915187427516,-10.14851880569798,False
2.64453125,8.732732672587439,-29.800803424281266,-61.006991336293716,6.353915119712507,False
2.6484375,0.04738858496612342,-32.34661358191418,-56.59955489302936,7.270511687038393,False
2.65234375,7.343353008835378,-50.68557870582311,-50.34399344022768,-1.0339652765061345,False
2.65625,10.205620593486755,-36.07165066841655,-58.19560197549139,-9.781720218837748,False
2.66015625,2.94607977781847,-26.871861027818472,-71.70849618316242,-12.138183683162424,False
2.6640625,5.324778114127449,-29.34319063587255,-61.487046643243,-1.9828993373466397,False
2.66796875,-1.5015355767764562,-36.079442570143335,-56.205713679856665,-6.37100559431229,False
2.671875,-6.820886408548495,-28.326332936580602,-63.99795615119331,-9.789706746322407,False
2.67578125,-4.391491227568211,-29.363755493499358,-69.3116173205457,-13.705315246749679,False
2.6796875,-3.9031801734267226,-40.06362111258622,-65.44503663286639,-18.950873952801686,False
2.68359375,-3.4210683807147655,-44.007305114295306,-67.92688710286578,-4.338737897134225,False
2.6875,-3.871826216581212,-53.61392501945615,-76.63825020600622,4.363236901437466,False
2.69140625,1.3890220140542024,-38.5363078820271,-73.28325760697064,-0.6083323319141793,False
2.6953125,-10.298552853949216,-32.74992322453153,-79.58984375,-19.116316742202283,False
2.69921875,-17.04477988806995,-38.0312170962278,-79.55765527719282,-30.241249027192822,False
2.703125,-10.315630627021912,-29.804648158533237,-74.74926371848868,-25.36788444004456,False
2.70703125,-19.570593868270052,-32.7377943398242,-81.04813018862166,-21.91036179190575,False
2.7109375,-25.353906297686628,-36.13615056384667,-80.17492885155345,-12.752059585393395,False
2.71484375,-19.969050205855442,-36.62109375,-94.30895471180239,-20.955708914684354,False
2.71875,-12.677072365409266,-36.61501370513642,-104.41314691677348,-15.124558660272843,False
2.72265625,-9.796323265732772,-35.724346740905204,-91.83371291887933,-13.260339414331929,False
2.7265625,-14.70113122215101,-48.30264818142282,-97.69654519929195,-25.36272832356711,False
2.73046875,-22.902277227156198,-42.411621183162424,-103.98825907571873,-20.974187706006227,False
2.734375,-15.558655981047428,-31.804625268952574,-101.62252554095708,-17.616035867972897,False
2.73828125,-5.387038965696148,-41.96986419802539,-110.70909298129158,-23.475768517670755,False
2.7421875,-7.889757050421194,-38.49374265581125,-90.7366173620437,-29.271122649859603,False
2.74609375,-19.590262200146494,-26.43275661127388,-78.15778455563694,-25.328334344289814,False
2.75,-28.287229902948177,-36.16258683734664,-82.93833904619117,-16.103356470884453,False
2.75390625,-23.424147744613318,-40.44389215383324,-72.77727269692669,-14.64509943615333,False
2.7578125,-21.484375,-28.34725544390527,-76.2695431716566,-14.29150310153818,False
2.76171875,-21.457211861046723,-32.25033024658411,-90.26412340261682,-33.20991578473832,False
2.765625,-17.64321724501007,-35.63213272714094,-80.53231031213758,-34.154890454281876,False
2.76953125,-27.80699577114997,-33.71644172885003,-75.19218306514375,-30.257790325718734,False
2.7734375,-23.91946277200452,-37.62924863997742,-74.73230516198193,-27.841508966993224,False
2.77734375,-22.997054397088444,-42.40393171465849,-78.66749498336691,-29.31919830197461,False
2.78125,-30.21549824894708,-30.803563764649333,-86.81749708157847,-32.64402910982421,False
2.78515625,-21.503868098370162,-37.25557323777622,-72.26237615027163,-21.940167752716395,False
2.7890625,-24.4140625,-58.95631738120308,-71.81042634705182,-17.033603335011904,False
2.79296875,-24.444105074620033,-40.503977303073306,-76.65014205845999,-8.842471521546726,False
2.796875,-28.838904561893425,-37.16326088781054,-75.22899117988159,-16.7800595033724,False
2.80078125,-33.11138785249954,-44.921875,-80.07472732787035,-42.35815255333272,False
2.8046875,-19.89614210423915,-44.83618809322163,-79.58641627372887,-24.62814564830922,False
2.80859375,-2.5381510496095894,-32.652650664536694,-79.20867281385347,13.973576993610077,False
2.8125,-16.41942939136605,-23.989562112784593,-94.3020621127846,-12.61203972868217,False
2.81640625,-62.978624708157845,-33.78475282114081,-103.8944654424556,-74.24450077824574,False
2.8203125,-61.33501571751206,-47.9067895741775,-87.32437611586705,-77.89759440044558,False
2.82421875,-33.2588587445828,-55.79827054912104,-75.54589861632485,-43.95842632225477,False
2.828125,-41.586612742629555,-3.2459392453305256,-55.32796119643838,-46.10024134201611,False
2.83203125,-53.867826500793505,21.49531311992614,-77.83366451695355,-75.88387758080022,False
2.8359375,-76.78813523355002,-47.97617361556186,-106.27691910059208,-105.05792971372765,False
2.83984375,-95.1876607137407,-65.51362108564278,-82.1060033497131,-116.23132477719449,False
2.84375,-91.21524717885919,-7.802128158762131,-92.70083461133493,-118.9746755401941,False
2.84765625,-78.23309962117744,-6.379040010986999,-82.32774159952389,-95.82168587483977,False
2.8515625,-93.38129296565037,-10.710535501739608,-55.762535383476774,-112.49108260086675,False
2.85546875,-109.73567819534253,-6.379557013664369,-69.54506472846641,-138.07371334182272,False
2.859375,-92.24909323879936,-10.732352133308918,-98.45270607298724,-122.97474897759874,False
2.86328125,-87.00338551203991,-9.18802073796008,-143.65590236449367,-112.24183056560153,False
2.8671875,-100.08764144716763,3.74935142229276,-86.82059100689781,-102.96725493300573,False
2.87109375,-98.46632656564732,-19.18227330731551,-73.40187809009339,-94.23488357787035,False
2.875,-74.64533667711957,-38.966530664408225,-96.11942924830618,-93.72258018983092,False
2.87890625,-65.86265226339803,-25.411368682475736,-85.97207280412623,-89.71583062473296,False
2.8828125,-58.00434329793078,-28.351696260986998,-90.77498040079655,-71.63786036783556,False
2.88671875,-43.93124494521761,-32.683191751739606,-84.455071806522,-52.2390599726088,False
2.890625,-41.93189372176952,-28.3486860426967,-82.05607684985961,-51.28726471418543,False
2.89453125,-33.58411134064274,-32.25875097280718,-85.37053581647135,-53.57503061481414,False
2.8984375,-18.98166163095892,-36.56699923319905,-74.64933043207898,-35.058879869758286,False
2.90234375,-10.778517507013477,-29.376801015429653,-66.95265926122157,-22.023518259818868,False
2.90625,-15.663983817066471,-40.123527436977355,-74.63880957013367,-28.78585319004456,False
2.91015625,-21.399135155343956,-52.59012295519746,-64.44001117774522,-25.410295733382164,False
2.9140625,-8.736130344717084,-31.150752208844533,-62.53308259705182,-28.34677857764146,False
2.91796875,-0.9832386276933407,-16.59488637230666,-67.29268477613991,-32.153125095373255,False
2.921875,-2.0137503242888535,-15.71593798643328,-54.23963563285923,-21.501215367858016,False
2.92578125,-10.762752357626809,-28.949120277116524,-60.10657841779589,-23.86751415339071,False
2.9296875,-13.658045878349508,-48.80046675669902,-66.78389827679607,-15.607713597936886,False
2.93359375,-11.701314577229445,-44.88700415445889,-51.206763728026004,-13.208003341878777,False
2.9375,-9.235141085652812,-40.10940027391198,-42.4699180839132,-16.580461167826407,False
2.94140625,-3.403781978651651,-49.691193329213206,-40.98015807162913,-13.650594842977476,False
2.9453125,-1.5077617137429042,-34.11888705136422,-36.043400075535615,-10.652775075535617,False
2.94921875,-7.306196045085718,-25.806815430342873,-23.810435938548594,1.4900755368799952,False
2.953125,-4.831847418055301,-16.038532463147774,-8.3517463319447,4.848835778703534,False
2.95703125,2.3865666296618446,-5.542467563556736,-15.714114383049502,-0.0788319542360984,False
2.9609375,-5.502470405679668,-29.819729054126228,-28.29611153711164,-11.313443479902949,False
2.96484375,-24.07223880127266,-34.74468461019044,-24.947675849203442,-22.95968000366233,False
2.96875,-44.4230430839132,-45.38905491782641,-31.28868577565159,-24.424613166086797,False
2.97265625,-42.883624175924794,-42.4911094780094,-36.567890109953,-25.893093887345866,False
2.9765625,-31.231968494399684,-43.995800715680886,-29.170654460797778,-27.813999744399684,False
2.98046875,-28.8158659605231,-50.683075157938106,-12.268845039446377,-25.361536157907587,False
2.984375,-29.79248806880608,-37.57566079358176,-20.746096611197583,-21.433052268357443,False
2.98828125,-30.81345873962339,-34.71970873962339,-52.12413520303058,-14.70017748962339,False
2.9921875,-37.57902866156992,-41.44802348470976,-35.875751779664895,-21.58868949520845,False
2.99609375,-35.235049230757504,-34.17593515567821,-2.670299253628934,-35.32135315015857,False
3.0,-45.45772365981505,-33.742371331944696,-32.389650762223035,-56.637227327870356,False
3.00390625,-52.14669693813709,-40.98820518983092,-55.4961161627144,-55.96040507881646,False
3.0078125,-38.07210837834951,-37.12320412165049,-31.741738530412622,-28.82242287165049,False
3.01171875,-36.07701574136247,-39.07993648707423,-32.27189736639299,-30.821002806052373,False
3.015625,-28.164258015168162,-41.46134593595495,-38.428804343679424,-38.8958054366569,False
3.01953125,-7.000456361014466,-35.6302252620857,-18.719206361014468,-16.22057615935726,False
3.0234375,-29.448339647042665,-33.79598898248184,-41.07693211904108,-30.841057374641398,False
3.02734375,-49.75378202633828,-47.826109763169136,-49.24732025003052,-41.3911869868919,False
3.03125,-42.880768174327045,-44.371273290148324,-40.15637160089727,-26.34152613417872,False
3.03515625,-31.15021573429775,-36.06998536974302,-55.57536537493133,-22.938131609366415,False
3.0390625,-18.06640625,-27.88791401529024,-43.83727248710554,-21.45829637619789,False
3.04296875,-18.13395256747484,-35.21629117108875,-29.747630518069535,-18.051395957227815,False
3.046875,-26.845186321186596,-42.84193337796802,-24.892061321186596,-16.116708726271135,False
3.05078125,-25.286906587621313,-24.930001993300984,-23.458243682475736,-16.532416891747545,False
3.0546875,-10.7421875,-28.902745032960997,-26.47528712117744,-6.818502077229446,False
3.05859375,-10.81604216260758,-41.91129906000122,-41.56369335782519,-4.447284580433987,False
3.0625,-21.056387528230484,-30.807825756882135,-49.82242096418543,-11.761310314045046,False
3.06640625,-29.153815120856986,-37.14513996978575,-52.30331770165721,-17.5638190120857,False
3.0703125,-9.556446767030888,-41.95251576616103,-59.98646332483824,-15.502378277225002,False
3.07421875,18.386055667460173,-36.65408693462736,-50.14266646447537,1.0058897752243179,False
3.078125,-4.2462556460965635,-41.14127926051395,-30.3399603438015,4.594546843526826,False
3.08203125,-48.87655672991821,-57.538951628593665,-39.12583380066227,-33.4117539904169,False
3.0859375,-55.096919491622415,-47.352015284517485,-47.2731535261399,-60.48678985075993,False
3.08984375,-44.83866317856054,-46.04594936527905,-35.56510178408051,-52.64359846752058,False
3.09375,-34.11399917216016,-64.77199950978148,-25.373338597936886,-40.98796675669902,False
3.09765625,-24.874445370681237,-40.99470121551093,-22.914345775851544,-37.0710147284367,False
3.1015625,-21.02092059985961,-38.139137892556306,-18.08059302134835,-31.67089408609534,False
3.10546875,-24.48201594259293,-45.33504981344992,-20.08033169863578,-22.432325524171397,False
3.109375,-33.55076050631752,-35.06248617087835,-28.327525102240127,-18.49338038095892,False
3.11328125,-14.615712552646036,-22.533659605231033,-29.376869315754135,-10.30117561840017,False
3.1171875,-10.426203991942868,-32.23022840940304,-40.0573920470152,-16.784857970151986,False
3.12109375,-33.169863578099246,-32.725930890633585,-42.46568589582189,-40.86410074467436,False
3.125,-28.711730290163583,-34.21321715917414,-40.28518510040896,-20.75393510040896,False
3.12890625,-16.090749319034977,-38.51413360075993,-8.732732672587439,10.663325741622414,False
3.1328125,-13.176023498062015,-30.72765261627907,-1.7373728197674418,0.34066133720930236,False
3.13671875,-12.332839472520435,-26.435810166829327,-36.62109375,-18.649996759485177,False
3.140625,-28.443411118147967,-35.31803675528018,-36.589439819619095,-30.768752956751314,False
3.14453125,-45.39227376510712,-57.613611003021425,-32.26590396676433,-31.656021819492768,False
3.1484375,-42.810072750717204,-56.84761476263505,-37.53274282983886,-20.34192264847708,False
3.15234375,-21.429833421076726,-19.032060434215346,-28.89949638153879,1.9058556315998292,False
3.15625,-14.215144891045597,-17.614784094030398,-41.06328182223952,-4.544833535524629,False
3.16015625,-21.513940708356223,-22.590287474058474,-47.34849839582189,-24.39558393227736,False
3.1640625,-25.394350517686014,-39.71842954587072,-45.36172452008179,-21.875792790163583,False
3.16796875,-25.848863675379967,-61.3431820522798,-38.94984034517488,-9.254811819034975,False
3.171875,-22.078639777131784,-37.995094476744185,-24.49733527131783,-6.491491036821706,False
3.17578125,-35.63308645966856,-26.443486102209608,-35.19058437099432,-24.959567701657207,False
3.1796875,-34.07587333849652,-36.13665746894457,-39.58538597050116,-32.21502759316628,False
3.18359375,-21.058521314962793,-36.55086273941686,-43.92580388594913,-30.722701521898255,False
3.1875,-28.794168545519746,-27.80318084103949,-41.42096132423854,-25.813992829838856,False
3.19140625,-26.913646434184827,-24.023956092061894,-30.36070402627724,-17.17711027627724,False
3.1953125,-34.752289813133316,-37.120373399539126,-42.0691762967739,-28.87458414723477,False
3.19921875,-45.76431886330342,-38.48853184322163,-52.19766202008179,-37.456086577931394,False
3.203125,-28.391663614722578,-27.437633045687605,-45.84961831624245,-19.046724071827505,False
3.20703125,-37.59765625,-39.49778948643411,-39.50914486434109,-19.508539244186046,False
3.2109375,-37.40690974447598,-32.70721388977904,-34.248356241988645,-16.452780225691264,False
3.21484375,-13.229730561023622,-31.861312746062993,-43.103315698818896,2.218411663385827,False
3.21875,-19.05071782678691,-47.23154694462247,-59.99272659731124,-26.010640555377524,False
3.22265625,-20.07809638802417,-30.773431777604834,-51.769525527604834,-42.42190361197583,False
3.2265625,-27.410630493499358,-32.30524543352866,-53.17938063655924,-35.03035730635415,False
3.23046875,-35.652454798834796,-41.90502846281723,-47.8515625,-19.527288225582602,False
3.234375,-36.60991719694195,-31.179215163965697,-47.93352388909235,-19.206891528184702,False
3.23828125,-35.05861163248489,-21.965145606344993,-58.57497339086248,-40.44472666979491,False
3.2421875,-22.47986312984496,-20.969597868217054,-56.216690891472865,-29.679172722868216,False
3.24609375,-24.913788540331442,-17.65060867209913,-64.38064132790088,-16.139985760773364,False
3.25,-26.282603346456693,-26.882381889763778,-55.083507627952756,-19.542784202755904,False
3.25390625,-15.566881924098151,-30.335430114295306,-43.503525710721476,-20.906979366950498,False
3.2578125,-8.257833482115608,-38.13278961041934,-49.296884537325276,-9.742198944790331,False
3.26171875,-3.0044362868522247,-43.83909053973631,-46.867131706647136,-6.922488726881523,False
3.265625,-12.377491539876084,-30.793432292302526,-45.969792970180684,-17.609838542302526,False
3.26953125,-33.102536022477565,-34.61566248168833,-54.64324084989013,-21.37976246337667,False
3.2734375,-20.87854621597082,-28.210871692455594,-49.312352886757616,-8.82554276918147,False
3.27734375,-6.978769893469376,-15.185689856332358,-48.9464718403032,-13.35499262216325,False
3.28125,-23.941160187007874,-21.030696358267715,-63.003660187007874,-33.595287893700785,False
3.28515625,-25.909902557147653,-25.417746768754196,-65.01114794108221,-21.38363700177013,False
3.2890625,-29.773443222395166,-28.738315584370994,-73.71094703732528,-8.808584212674724,False
3.29296875,-28.206222246383447,-20.180831263733747,-71.14743321964842,-11.250139483382165,False
3.296875,-14.065021430369896,-40.0588822540896,-53.722829352453765,-13.667911049182079,False
3.30078125,-2.425430255005494,-42.24082882508241,-55.215721237486264,-13.039809795049445,False
3.3046875,-0.6423090532106452,-13.260607651605323,-60.034273570545686,4.256716899758897,False
3.30859375,-19.06746775430324,-22.59159885628395,-57.12073991523225,-12.256029258606482,False
3.3125,-21.960317335423916,-38.10650235762681,-56.259281009659404,-18.01705059169566,False
3.31640625,-20.52852637833425,-40.436202685329306,-68.84351347433315,-12.318886193004944,False
3.3203125,-23.015980026933406,-29.76846593076665,-68.32182178172496,-25.42817821827504,False
3.32421875,-30.770119415761698,-27.907637241855287,-63.92704075407236,-29.642344932051124,False
3.328125,-31.570543541704815,-36.64106252479704,-59.52238744048709,-13.015856041704817,False
3.33203125,-11.290822136513459,-38.998123054385644,-53.77129088651346,7.135111472257829,False
3.3359375,-18.69655521348349,-31.262160089727157,-61.051369702969545,-15.839828251846427,False
3.33984375,-35.58736690662577,-32.69442791308063,-62.91886740447415,-41.397743898019286,False
3.34375,-28.820932664576084,-30.351583958981873,-54.71217782915217,-28.701656490340596,False
3.34765625,-30.335579135002746,-39.633636763336995,-57.5840452946652,-16.1215668013337,False
3.3515625,-37.53924013268327,-49.17453853651651,-53.66503912210828,-17.20667598463346,False
3.35546875,-30.778529311897206,-32.76947807616591,-48.3482490309486,-30.84997419996032,False
3.359375,-32.75746367232802,-39.08807195339681,-49.37181214902643,-40.86645527185192,False
3.36328125,-37.72211834485442,-41.87630899789416,-55.67693788912287,-24.007325381111517,False
3.3671875,-51.78806370361045,-28.81291535051578,-57.18508705670512,-33.34573781702069,False
3.37109375,-54.98447125060991,-29.357746363442303,-63.49395431812637,-49.199011477646984,False
3.375,-33.72735004463468,-36.15677502975645,-65.45764378471587,-36.11683748016236,False
3.37890625,-38.03363123168833,-39.13894762291705,-68.79937354078923,-34.23601732741256,False
3.3828125,-31.600466899758896,-48.52629845914973,-62.88289380569798,-40.97914473081853,False
3.38671875,-15.189799925990355,-70.51904270051273,-50.34604992599036,-36.523097732787036,False
3.390625,-21.65711980406519,-36.93663019593481,-56.86272546236953,-24.943473465253618,False
3.39453125,-41.97975917299945,-16.6264191540011,-83.00366972433315,-29.859726212003295,False
3.3984375,-40.435546994216566,-19.443625824024902,-82.32341999900812,-38.52832037210828,False
3.40234375,-29.87341169996032,-9.390815042806128,-59.73841811897204,-33.224138202371506,False
3.40625,-40.00070456990478,-22.58879726698407,-79.05041859320637,-35.559291405343956,False
3.41015625,-35.51577735877129,-37.10508320362571,-72.97180432841971,-25.831696489882805,False
3.4140625,-20.987450548968443,-36.56923454381066,-42.5409711572209,-20.542385304126228,False
3.41796875,-20.171718940606894,-30.861727803827385,-49.43815640248551,-24.49233045516926,False
3.421875,-37.14156347280718,-41.9881639408991,-62.97218701359641,-33.1991014408991,False
3.42578125,-40.93455773515229,-41.576866788362935,-60.98246252784899,-32.621616395425136,False
3.4296875,-31.27041583691937,-50.194972732787036,-54.69974950215162,-21.570121515061345,False
3.43359375,-33.69551922152536,-38.37679611678264,-56.20992535135506,-31.878122281862296,False
3.4375,-34.109260313663555,-15.339714757675639,-63.0214234553348,-48.3149870959989,False
3.44140625,-25.90394172885003,-39.1835048144418,-66.7735264355582,-45.35174013268327,False
3.4453125,-28.82960566974913,-53.130203803103825,-52.68814877655191,-38.49857583890313,False
3.44921875,-31.09764122871269,-42.25616278116035,-47.32519155717817,-29.649726231077945,False
3.453125,-13.778424805820057,-16.669754375724835,-43.02841789125923,-14.415875783968138,False
3.45703125,-25.964742177485807,-24.542816391228712,-49.877648038362935,-43.590076937603,False
3.4609375,-35.648853114317546,-39.17054660793859,-58.20054976498596,-58.49002525637895,False
3.46484375,-36.25977455969808,-51.221373227355905,-68.88268026646844,-46.831219979414456,False
3.46875,-50.23216830136422,-45.80115678218275,-72.72147934406091,-41.95165386757615,False
3.47265625,-42.80542330464506,-34.14293899354514,-68.80682457616126,-37.00729581540316,False
3.4765625,-23.40870919932247,-29.789269221525362,-63.91960106322102,-24.910569693050725,False
3.48046875,-20.123100641671243,-30.430862975340293,-58.58132167299945,-25.837478493331503,False
3.484375,-32.32670441540011,-48.840642739425014,-57.195667526933406,-21.004438909616677,False
3.48828125,-43.90328609525699,-50.154281614348065,-64.84894815956538,-21.943237766679893,False
3.4921875,-38.97299816311115,-34.12854359320637,-54.207742734465604,-18.618617383492033,False
3.49609375,-28.78713476812855,-28.42760740935726,-55.338869512223035,-26.016243733977294,False
3.5,-26.319649894326435,-40.548951752578894,-73.62242873710554,-41.45636864432644,False
3.50390625,-21.052662010544466,-42.84691066959653,-61.375489741652935,-36.0283787882256,False
3.5078125,-27.492711099157663,-29.402024011170116,-44.95254346159128,-24.519211511170116,False
3.51171875,-43.7778064764548,-40.96272836098573,-48.39274038901427,-36.07109975448335,False
3.515625,-25.349495284746382,-35.0164089681377,-54.21978360762681,-29.280423113898554,False
3.51953125,-20.578239686336445,-18.707970199673444,-56.6654816540011,-27.34789277566685,False
3.5234375,-28.841974388466703,-36.550159893258254,-59.57448507980834,-27.677645797091497,False
3.52734375,-32.67281991050174,-28.311907732100348,-59.991355606802784,-9.803446455548434,False
3.53125,-27.747382321297767,-27.432631375137348,-52.25032619643511,-14.23634028583201,False
3.53515625,-18.04494726812855,-37.49894493339132,-52.70433242537997,-22.95351054637429,False
3.5390625,-15.689824007736679,-26.406081904642008,-49.338014252578894,-23.34242478865287,False
3.54296875,-23.058003866431665,-30.9183693176616,-51.8491919978026,-12.717069523286334,False
3.546875,-35.094913076817434,-48.26536320042117,-61.96790666201245,-15.110431497207472,False
3.55078125,-28.112994891808583,-39.82733387886834,-57.0671520688366,-12.096755926493927,False
3.5546875,-5.4021794695721175,-16.606003317081733,-50.417311628288466,-0.18207350035097356,False
3.55859375,-8.914163533977918,-17.13899058477704,-63.902293233011044,-20.055274402565118,False
3.5625,-22.435723196301044,-22.51136610739791,-57.04485857100348,-23.854340722852957,False
3.56640625,-19.569339692821828,-28.358402192821828,-47.439460635643655,-15.620767811908685,False
3.5703125,-23.86611335874077,-32.646651874275165,-56.12250980437038,-15.213434610190442,False
3.57421875,-17.034050397134223,-24.945261713742905,-52.77300116736861,-24.1060366977202,False
3.578125,-10.880478716504914,-29.854301858252455,-57.18508705670512,-44.42927214948422,False
3.58203125,-26.4585669978026,-37.5715478220564,-63.485265309314535,-43.83217597891107,False
3.5859375,-36.559756826817434,-34.860741937145214,-64.46626862639627,-31.061608021653544,False
3.58984375,-29.68369675940056,-55.95824733320107,-65.80327541280063,-10.258317532199976,False
3.59375,-18.594923091008972,-34.47573203740158,-53.16453817409815,-10.889718000366233,False
3.59765625,-22.908714921717635,-13.793386484847098,-46.97850978338827,-26.75645939197644,False
3.6015625,-18.50485497543185,-26.810166454938045,-58.12811989753098,-16.031737118888483,False
3.60546875,-13.388670087842371,-22.059244037089,-60.492187976575366,-7.392577529280791,False
3.609375,-35.16912538912287,-31.292917963742905,-54.670332814502835,-14.695647260117195,False
3.61328125,-36.49144573452664,-36.055023690715984,-52.803520608252455,-19.980636845357992,False
3.6171875,-21.977007654657267,-27.391615451229935,-60.5729834279436,-15.6641626419154,False
3.62109375,-22.456556291201245,-32.587788694836114,-63.397700741622415,-20.13782388756638,False
3.625,-22.025591636399707,-18.660558272799413,-54.713967693199855,-33.189891153400076,False
3.62890625,-27.854384356116096,-30.452262348928766,-57.697658682017945,-31.653339446758835,False
3.6328125,-30.237434097082343,-49.732680694164685,-66.39724914927058,-22.433934947811757,False
3.63671875,-26.394368877037174,-41.96953635246902,-65.4251572704938,-19.585612754074344,False
3.640625,-29.333355269181467,-39.58726151918147,-65.01436678836293,-25.358704764466214,False
3.64453125,-33.25820305347006,-43.47998043894586,-72.68505868316242,-22.009374952313372,False
3.6484375,-39.09021785158396,-45.88457857420802,-65.31419645173351,-25.906624101583958,False
3.65234375,-41.84348691434846,-44.34065588396779,-53.27377207631772,-28.836475109809662,False
3.65625,-26.27896724119514,-34.62826963353781,-58.62021607764146,-31.729459224119513,False
3.66015625,-16.56159514626442,-30.24235178042788,-61.47902932918269,-30.610730969221144,False
3.6640625,-12.274094661823954,-26.91359037358076,-56.62274142351361,-13.999204061622512,False
3.66796875,-19.649035967161083,-33.275608672099125,-54.669379081975215,3.236759569752182,False
3.671875,-32.153601961637065,-41.04754523553378,-52.82101563930599,-16.222722057544406,False
3.67578125,-24.450781202313372,-44.424414074421655,-62.07597647904841,-27.77236335874077,False
3.6796875,-28.38036784509858,-43.33692055980284,-68.72754555980285,-21.530571419306597,False
3.68359375,-34.588928166773485,-30.69662650498993,-56.133745965711405,-26.306744701062076,False
3.6875,-26.264243995300006,-24.122309758972715,-54.29280375427272,-19.897870744445463,False
3.69140625,-15.653254326130746,-44.48539334790637,-63.9460075325795,-7.385436456616615,False
3.6953125,-18.639986952939022,-49.62934973562535,-61.94537473104743,-13.847212764374657,False
3.69921875,-27.405712357391252,-31.81454261294308,-55.204379261103654,-31.85267329441462,False
3.703125,-33.764366788362935,-39.646541956601354,-58.087228615409266,-43.37951067798938,False
3.70703125,-41.352441602957335,-49.72207041979491,-56.06972666979491,-34.903808921595555,False
3.7109375,-25.252035742080206,-40.853937532426905,-47.437195520890555,-8.277683040346702,False
3.71484375,-10.960711465390954,-23.851390112845632,-55.343161308597324,-6.319670161142648,False
3.71875,-33.8083875053409,-16.131998250854544,-72.77262325085455,-54.40042650918635,False
3.72265625,-45.93611223446466,-18.075824933616165,-74.80121808616164,-75.04932290394946,False
3.7265625,-49.74746354834279,-19.171722641228712,-84.47265625,-59.86307858183788,False
3.73046875,-43.81095543017152,-32.34652416948971,-84.4294700489837,-39.96708549830617,False
3.734375,-30.278265770921077,-44.26943253868339,-80.19400350210584,-32.903146315921994,False
3.73828125,-30.74228644974974,-27.715437448498445,-91.76286847456204,-51.816109400750776,False
3.7421875,-28.886799817264848,-16.18171155885674,-88.33491533716352,-57.50965415751084,False
3.74609375,-36.25255993268175,-22.9983565923091,-84.01385770538546,-46.7767243153818,False
3.75,0.0,-27.713470375160227,-86.87302219717085,-37.059214629875484,False
3.75390625,0.0,-15.132128912210828,-82.49658206105414,-31.81171865462675,False
3.7578125,0.0,-14.759308906335836,-80.04578750648538,-39.66165265633584,False
3.76171875,0.0,-26.329991931422818,-76.69735181857719,-51.21373789713422,False
3.765625,0.0,-22.540484753631812,-80.62723650277727,-45.30253349508637,False
3.76953125,0.0,-30.808809293551242,-86.84813573902827,-34.1796875,False
3.7734375,0.0,-35.44548704370651,-79.94068971470212,-34.1133394312355,False
3.77734375,0.0,-15.040749414408229,-65.999542685253,-27.290966865424526,False
3.78125,0.0,-5.583537670527376,-74.28634579289508,-22.07887821026369,False
3.78515625,0.0,-26.938056026063602,-80.93323562343588,-32.75370835050052,False
3.7890625,0.0,-35.09759544955136,-68.78411382034732,-36.48912101149057,False
3.79296875,0.024570419716376943,-29.311617251829826,-62.5,-23.358874656907595,False
3.796875,2.363379007584081,-30.747949236632486,-62.5,-15.721386593572605,False
3.80078125,-5.993344615989135,-29.250678580693403,-62.4769017903467,-25.88814553386132,False
3.8046875,-20.070675156793627,-24.483804191082218,-60.12368599501007,-26.860118196072147,False
3.80859375,-25.418700501281815,-31.756998250854544,-66.90388975042727,-27.27356124679546,False
3.8125,-28.254385739028262,-33.70082435871025,-67.833421315159,-19.953604489028262,False
3.81640625,-21.474897283006776,-34.63953559902033,-63.969582608496616,-13.249937768952572,False
3.8203125,-20.60318575276201,-31.676288635704694,-64.50558028901911,-20.062449213742905,False
3.82421875,-30.436595329477477,-25.48660019381028,-69.79542619185692,-24.40446498061897,False
3.828125,-46.81184502418666,-35.151391924937435,-66.90424740012513,-23.354912723936398,False
3.83203125,-40.370931615470305,-34.579986924327045,-67.89553314602027,-15.200261179652689,False
3.8359375,-24.95643826680095,-26.046107483748397,-70.24365243316242,-21.489292683345543,False
3.83984375,-29.966917791247333,-42.39642302340653,-63.42217997102775,-21.97265625,False
3.84375,0.0,-34.17044821613868,-58.08699018227736,-21.95879732420802,False
3.84765625,0.0,-33.328660043948,-56.20813710286578,-20.563605852865777,False
3.8515625,0.0,-46.33992624786364,-62.03979425128182,-26.442055503418178,False
3.85546875,0.0,-41.35792556499115,-64.92727908693463,-34.14201506515901,False
3.859375,0.0,-26.362448641503388,-63.49551793398645,-30.23078777353049,False
3.86328125,0.0,-25.945671602215846,-65.33430842540594,-25.740606591838603,False
3.8671875,0.0,-32.78243954289508,-55.67854731276323,-11.882911211316609,False
3.87109375,0.0,-39.536207024812306,-57.221209676188735,-28.43204822643899,False
3.875,0.0,-38.06149810397974,-66.39158636238784,-39.52145397477568,False
3.87890625,0.0,-35.70846113349204,-64.82829953305256,-36.67518826680095,False
3.8828125,0.0,-41.98229252502594,-53.69609503753891,-41.908080212720506,False
3.88671875,-0.32330687865987556,-40.95593757624741,-52.26598955791753,-33.60187511437111,False
3.890625,-31.67745099722273,-35.10477824765,-54.203898000213634,-24.991249504059084,False
3.89453125,-25.395334054355125,-29.869919228392234,-54.74871770661662,-34.292704804522984,False
3.8984375,-25.92155597646951,-38.711645646401756,-61.0730671179729,-45.91265407548984,False
3.90234375,-30.316355463742905,-52.63423308459989,-64.98909287638101,-47.30605729834279,False
3.90625,-34.79752735304889,-42.42768561542452,-69.84341261711836,-41.46551851576329,False
3.91015625,-47.85639106565132,-37.18180348476987,-71.63248678046025,-37.501084936973506,False
3.9140625,-48.237198286714886,-44.28206949467436,-57.15823352522432,-27.841807008408107,False
3.91796875,-38.071184449963376,-29.30671036669108,-60.19628888367515,-28.857770583455412,False
3.921875,-36.61119877502594,-30.372387249740584,-73.6463614627205,-33.62214142518159,False
3.92578125,-35.62462208348593,-39.88476645951596,-65.39982375022889,-26.78080937557224,False
3.9296875,-33.596271430369896,-25.01249985694012,-62.51502128731001,-19.64140610694012,False
3.93359375,-24.162386486671952,-35.78043629719715,-63.833972223069416,-30.32377270266561,False
3.9375,0.0,-48.69068971470211,-51.316922727688926,-35.23207636430228,False
3.94140625,0.0,-34.571999414408225,-56.28670081982848,-42.89677299830617,False
3.9453125,0.0,-24.94579818828969,-69.77593604078923,-35.42243078763047,False
3.94921875,0.0,-29.311449225187694,-64.89282549937435,-13.237032575688213,False
3.953125,0.0,-30.76171875,-60.00971495795947,-18.58401477522432,False
3.95703125,0.0,-30.8453193668742,-55.23479345014649,-21.499128050036624,False
3.9609375,0.0,-39.09218492492217,-61.193475849584935,-22.870058950207532,False
3.96484375,0.0,-41.95236916697186,-76.58051958394373,-15.012286459287067,False
3.96875,0.0,-38.12098717039004,-68.7525214303699,-3.004793936550082,False
3.97265625,0.0,-41.38805755203565,-59.62068149911494,-10.299238349203442,False
3.9765625,0.0,-30.28863854001343,-64.40752187995972,-14.739643740080576,False
3.98046875,-0.1536955560300128,-31.82537539841701,-59.997115527587994,-23.504101407613007,False
3.984375,-14.774747451626686,-39.9419009987487,-54.281806026063606,-29.756007799624612,False
3.98828125,-27.421956067264848,-30.097473848654094,-62.51466363761216,-26.796814199551363,False
3.9921875,-35.146414633308915,-12.798583850256364,-64.05336205021975,-21.064941316837576,False
3.99609375,-34.15989755005188,-23.048168499740584,-72.80832861235731,-27.82213627502594,False
4.0,-32.141948542315205,-32.80941229094183,-78.03540875068668,-26.79574125045779,False
4.00390625,-23.95081672885003,-42.037251361930046,-69.34094459577001,-20.941015696529938,False
4.0078125,-26.407485159015994,-46.25575135819802,-69.92496289753998,-15.574627926230008,False
4.01171875,-30.26324448361106,-33.78314339750046,-79.51339612708296,-10.930758303195386,False
4.015625,-29.27124343832021,-42.418953001968504,-72.12208825459318,-28.875235810367453,False
4.01953125,-26.809063701702986,-36.50765918749619,-58.63499893181957,-35.145937767045105,False
4.0234375,-22.455751579381065,-25.987810582997618,-62.4688844762864,-34.22636078557041,False
4.02734375,-21.925740500320277,-36.24749544366154,-59.53382247247133,-38.433471500960835,False
4.03125,-17.44373812603003,-46.95463666605628,-56.20211666628517,-25.266192709287065,False
4.03515625,-4.464630590780077,-54.58235098882989,-61.055184633080025,-13.363849197720198,False
4.0390625,-11.28587464902643,-44.21700705380577,-63.018502649468964,-30.993416145928705,False
4.04296875,-16.61169652667562,-23.361494799932853,-65.92303576333781,-53.131450009919426,False
4.046875,-17.614009186351705,-16.272196932414698,-66.52415518372703,-44.20290969488189,False
4.05078125,-20.923908119315755,-31.20875106818043,-77.72952884659404,-22.50218643181957,False
4.0546875,-14.02532231390771,-27.229659746383447,-86.17685706029116,-26.491649594854422,False
4.05859375,-1.6265312175730942,-16.653719747604224,-62.915261103354084,-38.07029032571873,False
4.0625,-16.727455193645852,-21.521093702313372,-56.220535625724835,-36.53716528756943,False
4.06640625,-28.452195826084967,-25.039502409128364,-62.389218006088626,-28.72946375434902,False
4.0703125,-40.601615670588416,-37.78333605147104,-52.24609375,-21.601088018067507,False
4.07421875,-47.21930813785004,-54.55419156282411,-52.33141114979257,-32.31187989979257,False
4.078125,-34.13355068897638,-42.35231094160105,-59.997078001968504,-39.89039944225722,False
4.08203125,-29.764531784090217,-30.28890584943234,-54.22499933238723,-25.858281784090217,False
4.0859375,-27.743870599478118,-31.77458269433254,-56.635439079381065,-23.811690996383447,False
4.08984375,-19.301758110541414,-35.11973992667704,-56.006303456708174,-12.995827658624794,False
4.09375,1.9111607687847159,-31.75401783670573,-42.53816956792102,4.305357258667521,False
4.09765625,-2.106118996841045,-33.271708515825296,-48.05731304747589,-3.9853848259522646,False
4.1015625,-16.182635487242873,-39.40673783418788,-66.85718666071537,-11.299822987242873,False
4.10546875,-22.530679191082218,-26.372552245467862,-63.35317335423915,-17.567395509064273,False
4.109375,-28.67373000976622,-26.930992444530915,-52.28385559726546,-16.531433355078434,False
4.11328125,-16.482226717481534,-33.61546529748825,-55.67491120750168,-10.243057542498322,False
4.1171875,-5.946641526277238,-26.784564697399745,-56.656987473676985,-9.380972749954221,False
4.12109375,-13.732150753232496,-20.54616979751159,-58.07259106641864,-18.49989136069773,False
4.125,-19.09423187335958,-24.043686433727036,-55.119391814304464,-13.605232939632545,False
4.12890625,-23.889688434657877,-35.20781116477446,-49.814999732954895,-7.329374866477446,False
4.1328125,-20.372978563907708,-39.971645531953854,-50.84348104742721,-7.84880144433254,False
4.13671875,-7.869876474560494,-33.67575812057441,-56.724081690269806,-11.329573569695397,False
4.140625,-13.125565086522615,-32.17380916956601,-64.41092233565281,-20.35482784174144,False
4.14453125,-7.8178051371848865,-27.402106509033754,-60.52034931407557,-6.246858643487151,False
4.1484375,-8.476834313770372,-32.84821728315937,-58.14281333928462,2.652270551028505,False
4.15234375,-24.338956063449917,-44.86822754532137,-61.55026122733931,-22.48239648187145,False
4.15625,-17.551152251953244,-40.055246148828054,-63.894714605078434,-24.149729569141794,False
4.16015625,-15.163840518754196,-41.5310280187542,-57.44903253372398,-0.48828125,False
4.1640625,-17.670845684169567,-43.85804597372276,-42.56228111838491,-0.6137268815235305,False
4.16796875,-25.977545316788657,-36.023213536901494,-49.914286463098506,-11.757109637084477,False
4.171875,-34.61640758522554,-26.372343616477448,-59.48781463636086,-15.214060497161691,False
4.17578125,-29.743668885048525,-26.964373082997618,-51.70595329381066,-22.502424864951475,False
4.1796875,-25.863259075718734,-37.109375,-46.848921376197886,-26.335893151437464,False
4.18359375,-24.52421860694012,-37.07790182658854,-44.52276774133248,-23.385044710980896,False
4.1875,-34.69434541521699,-34.13748483565281,-52.94011298869255,-18.544136833913203,False
4.19140625,-36.94491574726851,-30.40606592962217,-71.70307182941158,-17.64178664621864,False
4.1953125,-21.94064660204175,-42.533818163263746,-64.79736283418788,-23.480179530611,False
4.19921875,-19.091254406513247,-47.143313259217436,-51.71489191643267,-27.236448541081675,False
4.203125,-23.470046122505035,-27.47393449002014,-47.78104590123909,-17.49675969373741,False
4.20703125,-26.236287710584143,-39.05704584210767,-41.45481882896905,-10.357535249954221,False
4.2109375,-14.533274297289873,-38.41518385101935,-37.202602354574864,-19.520282075932368,False
4.21484375,-4.366982597590729,-24.50221818770967,-45.47627301578225,-18.527138847590727,False
4.21875,-2.056843412378685,-32.15395961133492,-51.17618467885919,-16.144396773713606,False
4.22265625,-11.932594715177318,-25.43235079808338,-42.553488896645916,-19.10555744712507,False
4.2265625,-31.832706533848125,-29.38080858564278,-49.56820700692833,-24.991523184745454,False
4.23046875,-40.37879990882317,-37.199562332143074,-72.62658295756272,-33.18190445126045,False
4.234375,-26.775444630104378,-45.43683095663187,-60.885777892861505,-31.28200964795825,False
4.23828125,-19.56880321827504,-47.830103518128546,-47.39546972280718,-34.23869970014649,False
4.2421875,-23.00316424609351,-45.78515195820363,-50.282179650781295,-39.383550212110116,False
4.24609375,-27.84287995750168,-35.61198512749496,-49.33267931125252,-24.27845365622902,False
4.25,-28.759506328969053,-32.67121048686138,-50.75397921053836,-12.201577092107673,False
4.25390625,-24.529225702710125,-28.901821104574864,-48.35081167406763,-11.82842924067631,False
4.2578125,-34.61834485442227,-37.12591629852591,-49.29986495147409,-21.53399889557773,False
4.26171875,-30.140481083018177,-38.74041427122728,-47.829403097169696,-25.784728787971208,False
4.265625,-18.722544424861137,-53.107254614157966,-45.914174086705735,-17.50468759537325,False
4.26953125,-34.22189016434719,-42.41188942043582,-47.42130991347739,-10.789665497390589,False
4.2734375,-37.990445030672035,-36.286661478361715,-52.83517260651285,-15.258736905252396,False
4.27734375,-29.339557135880845,-50.09556387155109,-62.01171875,-26.399199101910632,False
4.28125,-33.14917950390649,-32.13485515664103,-61.92540595625038,-29.221351305469085,False
4.28515625,-28.37998039125923,-23.99629784876091,-54.14497521249161,-22.44466443874748,False
4.2890625,-33.71322288156931,-30.431608078877495,-49.48548514466215,-20.985185434215346,False
4.29296875,-35.58969162966184,-44.37327016762803,-64.43118915186474,-20.074370870338157,False
4.296875,-30.816856411753037,-38.88054571621498,-62.29599065151376,-24.99056400880486,False
4.30078125,-35.58355197651529,-23.093351578236586,-44.577726578236586,-32.7813665938015,False
4.3046875,-30.36261149133248,-35.64453125,-57.30168085820668,-38.51291163095892,False
4.30859375,-38.175533669096566,-35.56053484147197,-72.24322595772585,-33.175126197157326,False
4.3125,-45.738389260208756,-28.41634144387475,-70.28582529336812,-30.809733221937375,False
4.31640625,-31.067598654092656,-37.028903817982055,-67.76379884064274,-35.0543198361106,False
4.3203125,-14.567519255859732,-29.74199985312519,-58.15941424609351,-25.857328051562597,False
4.32421875,-7.5086467775285355,-26.01451509377098,-63.08049526376427,-23.92035689624916,False
4.328125,-24.029416575738615,-38.15139138994018,-71.1745181926047,-23.328410183433036,False
4.33203125,-33.109390975019835,-43.812982111792714,-61.00207365294818,-13.622251104422267,False
4.3359375,-24.924518031267166,-32.326346765702255,-58.249601578236586,-9.410389437603003,False
4.33984375,-26.89448237120796,-40.95431788095892,-70.78963450108344,-21.074120992415917,False
4.34375,-30.318262928798145,-35.532467678004636,-69.75698060680278,-27.77039628540255,False
4.34765625,-34.117724689846185,-25.99719888756638,-64.02117357741257,-22.483469430965023,False
4.3515625,-28.672686864814136,-36.195103155710186,-68.8986213319447,-24.538643811420375,False
4.35546875,-17.010191232765983,-41.395806405182405,-73.02598781036481,-35.173318396550144,False
4.359375,-10.308447828923274,-32.25383328946164,-54.611141789507414,-36.58291464475371,False
4.36328125,-15.229946104574864,-34.79409987677776,-48.120276639656964,-33.197641037966186,False
4.3671875,-23.503665194103643,-45.73302451474089,-71.75528868529878,-32.70381621764939,False
4.37109375,-29.291331429683208,-31.227825718732834,-69.70226020303058,-31.77154267190075,False
4.375,-28.85318074566624,-29.374902242415917,-59.14891174349936,-34.68468887337484,False
4.37890625,-32.67001832120186,-36.09359024980162,-64.96942214299884,-36.00393939220533,False
4.3828125,-28.87055656015382,-32.759907611930046,-67.3433816208112,-24.84601392258744,False
4.38671875,-34.19101307376549,-36.58711702870353,-63.947855389351766,-19.97989174182079,False
4.390625,-34.99115478306983,-33.7084850655445,-62.477228245940665,-16.578790745940665,False
4.39453125,-21.053615743072086,-35.14474560138558,-60.42607881454862,-14.826755678523469,False
4.3984375,-25.97141830517915,-34.121867465513034,-50.212020701718245,-29.790938253448697,False
4.40234375,-33.73787518301611,-29.407238715913252,-43.544160499405194,-30.314097816389094,False
4.40625,-37.60322962445828,-38.5463518777086,-50.8648506168742,-33.735993245666236,False
4.41015625,-38.05231842840139,-36.08238389260209,-58.15029417879814,-37.47998949940487,False
4.4140625,-35.144984034517485,-31.88473880127266,-62.056782611930046,-27.37754789644754,False
4.41796875,-34.16836192623451,-44.552512274537634,-65.85001530740706,-30.23379799182079,False
4.421875,-33.265743501266556,-54.56795558849112,-60.08136411409693,-26.821313203854604,False
4.42578125,-38.52271719350851,-44.22758752403406,-61.97166198383996,-23.988727596822926,False
4.4296875,-34.08190011177745,-26.84971655069279,-58.530475807620704,-29.33714039515046,False
4.43359375,-25.896253319191796,-26.442358133164447,-53.31517395235625,-32.662802542424615,False
4.4375,-27.197709706708174,-32.72652697346334,-61.029314638268325,-28.209321877098212,False
4.44140625,-14.907733530946713,-33.49764952618568,-60.45880376190258,-18.925540432536774,False
4.4453125,3.735114619575169,-17.56042133995605,-53.10463184970701,-9.200627889809558,False
4.44921875,-10.39617267569546,-16.36817526270437,-43.46295901773731,-3.018604016059663,False
4.453125,-21.858804429515352,-37.17768609229079,-44.030701365363484,-10.401913616630043,False
4.45703125,-12.218476738951288,-42.842849621535834,-51.315313205805154,-23.017891683707727,False
4.4609375,-13.195157756897393,-32.139832448269544,-55.22781928103827,-28.75077371551303,False
4.46484375,-14.148532634819631,-24.972085441082218,-59.48894719373741,-23.91415763481963,False
4.46875,-13.25953470251175,-30.901917431560154,-52.77526628212171,-22.93169391480498,False
4.47265625,-19.607578406351095,-42.59789706746322,-56.12885808650736,-21.560703406351095,False
4.4765625,-25.920214790102545,-52.09856324963377,-53.99267604948727,-27.8202288099707,False
4.48046875,-29.17825451687725,-39.93823508934566,-37.1568231932491,-26.83174465337545,False
4.484375,-19.525289171702376,-31.690594623618995,-41.152724050845386,-24.890422093404748,False
4.48828125,-19.198725193416955,-27.85000314731734,-52.306000074391136,-23.919790617560885,False
4.4921875,-31.653995137871576,-29.266772817096992,-57.1349266865806,-23.509745238967223,False
4.49609375,-24.93257096814772,-26.83733241911137,-57.65950560540681,-29.381511210813613,False
4.5,-27.349442591024232,-25.430473137169628,-61.07500438716963,-36.08157918078191,False
4.50390625,-27.82058576104871,-28.871543939232083,-64.36156108838969,-31.60665812706019,False
4.5078125,-26.872814760346092,-34.15655948620521,-56.646407003448694,-20.44999246551303,False
4.51171875,-28.209888155786487,-32.26143334554111,-57.11147082722945,-15.665682653131295,False
4.515625,-19.072176808658366,-35.319815128486844,-55.61732960614662,-19.095543255585056,False
4.51953125,-21.554831990477936,-48.79289650476103,-51.82239807460477,-23.349428761902583,False
4.5234375,-27.42046586019044,-45.71549967954587,-57.12890625,-16.29621907045413,False
4.52734375,-33.74478546740524,-30.74392567753159,-57.140768298312274,-31.27372409662455,False
4.53125,-37.90711265107123,-29.36840493957151,-58.07566460851187,-32.970652696392605,False
4.53515625,-23.473443794634683,-35.162240632439115,-55.58019364585241,-14.27397826634316,False
4.5390625,-26.445453175547826,-35.57228601103278,-48.86424761948361,-23.527806548709027,False
4.54296875,-32.654385626334246,-29.815385311832877,-51.824316436032326,-30.604527628469047,False
4.546875,-27.92358957265153,-32.33528800814869,-57.16896301616004,-18.032071879005677,False
4.55078125,-35.569752659006284,-41.555676043764876,-60.46059201039187,-15.142470949307208,False
4.5546875,-29.23905496551303,-45.84639946896173,-53.19374623275652,-15.671256027589575,False
4.55859375,-24.443121537950926,-41.46903540445889,-50.90329795939388,-19.560309037950926,False
4.5625,-26.931414338145526,-38.56253481336223,-60.96505263017336,-22.013550028232206,False
4.56640625,-33.2503347601172,-37.57995258995605,-55.10496660982421,-25.3788225599707,False
4.5703125,-36.88399608206678,-36.150605572468415,-49.43502673312275,-24.39626942753159,False
4.57421875,-18.566609156595252,-37.64534287638101,-59.11779621978575,-23.038631174464385,False
4.578125,-19.64507201634316,-41.348149806583045,-61.88591546877861,-30.15961548365684,False
4.58203125,-28.78451200367759,-28.820634623161205,-51.71566944393579,-20.881705454968564,False
4.5859375,-26.89782043505463,-29.86380937938717,-48.41849687938717,-11.78530264794299,False
4.58984375,-30.346344636322048,-36.047754174290944,-54.74825594693504,-17.180977670402562,False
4.59375,-36.104049747817726,-29.33139030261873,-59.51278699563545,-24.48884565567391,False
4.59765625,-33.65072359686871,-32.31955142144296,-54.786300729033144,-30.907013939754624,False
4.6015625,-30.238387829609962,-40.05658733519502,-63.01748930865836,-42.86360098882989,False
4.60546875,-27.314392920634194,-41.486292002380516,-65.23593077618568,-33.98593077618568,False
4.609375,-25.043973030351584,-40.13348202023439,-49.3282086900293,-18.101813570087895,False
4.61328125,-36.632955798312274,-47.78632123428249,-50.33448591909296,-21.02574887078069,False
4.6171875,-37.442674714261734,-42.28376141617836,-53.63344673213087,-23.40769585851187,False
4.62109375,-24.908334382439115,-26.34921560268266,-47.519037693416955,-20.984112485121774,False
4.625,-25.372563690258193,-24.90234375,-59.980328074452174,-20.037592559741807,False
4.62890625,-23.92578125,-24.97494663866508,-53.56573172266984,-21.42992283350119,False
4.6328125,-23.980504994048346,-30.883327070107434,-42.13203706812355,-17.16280874206446,False
4.63671875,-28.350990167896793,-40.441446279888986,-53.2962826529523,-23.12714922380139,False
4.640625,-30.70330263268327,-33.5395243449765,-59.02361513268327,-37.06848371787829,False
4.64453125,-25.808449259522064,-20.978479502380516,-54.210961581746325,-33.43893536745407,False
4.6484375,-20.02543247001465,-19.70828660043948,-55.10496660982421,-12.648102739882805,False
4.65234375,-20.590846838185925,-34.38727334546481,-49.34606137078069,-9.097475756119147,False
4.65625,-27.433162424464385,-51.20396213872612,-51.82338161127388,-34.32870820744064,False
4.66015625,-34.81773456097784,-45.8565030729262,-57.06300929316975,-46.43464380951291,False
4.6640625,-46.89908174632241,-42.45638700367759,-51.7758738097418,-50.15449870864616,False
4.66796875,-48.75552211133492,-40.45474086133492,-53.1621538427791,-38.844691334004764,False
4.671875,-42.96875,-34.819979150134294,-48.32160250198388,-21.599902904102063,False
4.67578125,-42.85823624336202,-46.881139653146555,-47.17584300418116,-30.909070425517303,False
4.6796875,-34.11799292711957,-47.221383732375024,-70.79461179271196,-42.4372825489837,False
4.68359375,-29.42078459555908,-36.176180858445676,-70.0832672482157,-38.99434972244251,False
4.6875,-39.12774126571751,-39.49147100843862,-52.28167989493682,-33.63802703259476,False
4.69140625,-44.40378960851187,-34.596438810428495,-55.21750704808338,-29.278992515107124,False
4.6953125,-41.932281175608864,-28.832556279756457,-58.64766569195202,-27.891937574391136,False
4.69921875,-37.025088887871576,-30.773759623161205,-62.95817906709699,-32.78708898896722,False
4.703125,-30.33999014794299,-31.81088413866508,-60.44402090772447,-38.4532139355582,False
4.70703125,-35.729651878090095,-37.59765625,-52.379854736998716,-28.759953391091376,False
4.7109375,-42.388821014924005,-37.444910024873344,-63.08603883408106,-24.95122254204053,False
4.71484375,-34.97820005874993,-25.48885945034487,-70.67184853392236,-28.83929201573277,False
4.71875,-20.804840574070685,-33.4067170905054,-60.44816368339132,-31.163627597967405,False
4.72265625,-5.946169957880601,-49.07462029590404,-52.715776080454155,-24.252871863936026,False
4.7265625,-12.970702767350302,-30.285955239425014,-51.24449577114997,-11.725008869712507,False
4.73046875,-34.2551055519124,-31.24371516234063,-49.36040011361557,-12.452139918715305,False
4.734375,-39.87049027574315,-30.575085216001344,-52.84876329503143,-31.292143056064212,False
4.73828125,-26.26433340772447,-15.67340192577672,-62.04196995361045,-34.59536586133492,False
4.7421875,-18.175847057544406,-19.610290583226515,-64.31328396813771,-28.83899397431789,False
4.74609375,-26.93489678706586,-25.854466853979734,-53.10045926989868,-31.133912868903742,False
4.75,-33.08033193706891,-23.919641596853445,-43.450891596853445,-21.843723533922358,False
4.75390625,-23.4375,-23.49919833887804,-43.26490202661458,-11.891505348858503,False
4.7578125,-23.425041868857964,-28.3203125,-66.35018840986083,-25.403083131142036,False
4.76171875,-22.42338428172496,-28.426713285112616,-61.79265831006226,-26.24826897546237,False
4.765625,-19.701044194057864,-36.58336170687603,-45.0476484770799,-17.045823033022035,False
4.76953125,-32.73379918398645,-33.666132338018066,-54.757003257950316,-13.722422823963864,False
4.7734375,-34.0908115500824,-31.770022660684855,-60.02685233931514,-17.705090642739425,False
4.77734375,-27.356499168801854,-34.14143999359444,-57.64268583760371,-27.407495844009272,False
4.78125,-28.258915968534456,-31.188603468534456,-59.53347458112067,-32.14060735594824,False
4.78515625,-23.38197488440762,-26.348679128135874,-56.62211662813587,-25.298083140679363,False
4.7890625,-19.073965057147653,-25.044926762879204,-55.26257091001343,-18.128398864295306,False
4.79296875,-21.43454247543185,-36.08920904100287,-61.98680248771593,-22.905615291002867,False
4.796875,-17.60316047885003,-32.570889746612345,-59.99600505287493,-19.56880321827504,False
4.80078125,-19.66960082478789,-21.484375,-55.26382268395593,-22.567844955517916,False
4.8046875,-30.425090228604567,-21.478056136308144,-61.92957352200586,-30.704848976773288,False
4.80859375,-41.9602970686077,-21.059874612784593,-55.6002816372154,-26.437346449063053,False
4.8125,-39.44825500328084,-26.03269562007874,-50.92863147965879,-31.89207062007874,False
4.81640625,-31.751156639122872,-37.61696933368431,-62.08253339017579,-43.553596668421534,False
4.8203125,-32.637233765564915,-38.984890015564915,-67.18232004020936,-50.51608255318013,False
4.82421875,-26.64765653598011,-33.183642604935635,-52.194140696495026,-30.501953482475137,False
4.828125,-11.38139692249588,-31.606219099066106,-48.54108131332784,-11.400262944057864,False
4.83203125,-23.056632875923214,-21.47805652200452,-64.02171005195935,-24.572024449887078,False
4.8359375,-31.14842748580846,-21.04688000709577,-68.21336451084966,-36.55761092863029,False
4.83984375,-23.514037035341513,-25.08093016579686,-57.0651253872154,-31.7063908186077,False
4.84375,-29.309690780839894,-38.58062664041995,-52.31658054461942,-29.098230396981627,False
4.84765625,-30.286312889122872,-39.02387383263139,-57.623625194561434,-14.185907028245742,False
4.8515625,-31.15945501815907,-36.15221499610877,-58.06019625907953,-16.281436216276017,False
4.85546875,-24.47903552844412,-37.441720981734115,-54.66151078862235,-28.76311263008912,False
4.859375,-29.4796339956052,-25.9050146779436,-52.8388087117744,-25.3645165720564,False
4.86328125,-42.93596344310829,-28.02219327997192,-60.57310424551337,-23.391598820351604,False
4.8671875,-40.46117855589635,-42.01865357764146,-62.41398524766526,-19.986448652948177,False
4.87109375,-35.471863850176874,-43.752721938658816,-56.19219007303611,-17.578125,False
4.875,-22.86117731604407,-29.804022271561983,-59.11976329312397,-17.647300412393946,False
4.87890625,-16.05641494804065,-31.23104456601355,-62.05594809596838,-22.772301366126474,False
4.8828125,-11.91554674624611,-29.7407182750412,-65.46142891068486,-9.27099546786303,False
4.88671875,-27.097836028581458,-26.55215200207532,-67.88384992255692,-9.037807864859916,False
4.890625,-45.22432742782152,-40.59142265419948,-68.84765625,-27.78076812664042,False
4.89453125,-31.217811527192822,-45.28784005333272,-68.82834316631569,-24.054535141228712,False
4.8984375,-28.86033373962339,-36.068137512970765,-67.30520251556491,-33.87249621368186,False
4.90234375,-32.662862154346236,-31.262995398913443,-61.45196280597607,-47.09687557227445,False
4.90625,-28.821707572254777,-32.23967632225477,-56.17201448338216,-27.153599577305744,False
4.91015625,-29.66000865989135,-33.24264529161326,-57.57108049311787,-13.348261631721908,False
4.9140625,-20.52104553882073,-36.152662058231094,-54.19921875,-25.430324116462188,False
4.91796875,-21.670324507501828,-37.71719521910832,-54.28555244991156,-28.43985146910832,False
4.921875,-35.20027071697797,-46.17919251281816,-60.57831836926997,-37.09679765229201,False
4.92578125,-38.6879513539187,-30.039653814167124,-62.96932581601355,-35.993805984099374,False
4.9296875,-47.30614322312599,-12.308609964442681,-61.51708883034733,-25.511249723400685,False
4.93359375,-42.78932906824147,-20.090018044619423,-61.10564304461942,-34.77049499671916,False
4.9375,-29.322625778245744,-25.500065807544406,-66.50925311298298,-42.46759336087713,False
4.94140625,-31.262934997405846,-33.613796265564915,-74.03119253761521,-41.43276376426784,False
4.9453125,-32.25904901422206,-27.708582495956176,-59.86367466466764,-36.048347563022645,False
4.94921875,-34.6483874290423,-18.6982838536898,-45.527644175746204,-29.6285056823384,False
4.953125,-33.170340444363056,-29.316545733382164,-54.25823095014649,-18.230329028184702,False
4.95703125,-30.78147889580663,-30.76171875,-58.52788284731124,-30.563252971830558,False
4.9609375,-32.206712941768906,-30.80803438587255,-53.8035687717451,-51.69164730589635,False
4.96484375,-30.967616534631574,-34.19961309206112,-60.61993550422411,-46.742162719592535,False
4.96875,-45.879392653589086,-35.58104842863029,-65.86083421076727,-37.00780248580846,False
4.97265625,-44.223116902810844,-30.74896257744308,-61.57446219022768,-29.252228396050786,False
4.9765625,-28.3203125,-29.849235154199476,-65.48095062335958,-25.98784038713911,False
4.98046875,-28.346063278245744,-34.66796875,-69.29731133263138,-34.21187597280718,False
4.984375,-30.351047484435085,-34.72617623832631,-66.41918499740585,-36.58875625648538,False
4.98828125,-36.217277436977355,-39.01701888008912,-67.31134216871146,-34.25765513413294,False
4.9921875,-42.3695079312397,-35.6314770360282,-62.0051916430141,-39.9803185371269,False
4.99609375,-34.03543545519746,-34.66141183887261,-61.56933587789172,-35.56584831647134,False
5.0,-23.50337117339153,-34.12699056128678,-64.77014119918204,-29.916898596783053,False
5.00390625,-28.406714706174082,-30.426302941692608,-52.20621580868888,-39.464379043825915,False
5.0078125,-34.61455972845327,-41.63742880386681,-49.4966616977202,-33.0562501907465,False
5.01171875,-30.708107291539587,-51.034981119235695,-62.50670143230755,-22.615070443073684,False
5.015625,-26.817021407480315,-34.05152969160105,-62.92420234580052,-33.64655101706037,False
5.01953125,-23.977282806491484,-24.497752529298662,-58.12478183368431,-30.31850136193005,False
5.0234375,-27.88377123962339,-30.8975362227614,-59.647922484435085,-33.697873748702925,False
5.02734375,-31.69280013008912,-41.03511690853323,-65.3712117744003,-34.08222795733382,False
5.03125,-28.2354601091833,-42.4217247871269,-60.917668324253796,-26.992537996703902,False
5.03515625,-21.946427004486633,-38.2105264161885,-52.324781486540104,-37.24707853894518,False
5.0390625,-20.098929482924373,-47.230950861792714,-58.06576963353781,-47.191251745330526,False
5.04296875,-26.05835698590002,-37.55113198513703,-55.17578125,-34.574920220274066,False
5.046875,-39.20269868156015,-34.35326682002686,-55.21583801616004,-27.892116399240066,False
5.05078125,-49.10181643128548,-46.71405763596411,-58.004879772477565,-32.05891420412928,False
5.0546875,-33.54995579449734,-35.13604279207105,-50.78125,-19.985852570118414,False
5.05859375,-23.51187554329592,-33.77930461934972,-50.84210271724211,-17.74039891264564,False
5.0625,-28.756615327244706,-39.94810026017824,-55.25374888413294,-29.25789118293353,False
5.06640625,-24.9545606058872,-33.2161792139718,-61.0939002128731,-26.236645360282,False
5.0703125,-28.828264483382164,-34.271484255783434,-65.39034603323567,-16.693359255783434,False
5.07421875,-30.25367735419337,-40.96293127784899,-62.48023985419337,-23.602167881721908,False
5.078125,-28.76227811412745,-37.05644284471708,-61.015306691768906,-35.58498257530672,False
5.08203125,-25.37068602934444,-33.24964926486297,-59.497202940929625,-31.14365882317036,False
5.0859375,-24.03927542078679,-36.507599579213206,-54.19921875,-23.33068195690655,False
5.08984375,-32.21985656816517,-28.300194704495514,-54.118747567982055,-15.725588977522431,False
5.09375,-31.67765962621315,-26.85546875,-48.33984375,-23.110876413431605,False
5.09765625,-27.16783521929557,-26.862234703104015,-48.407503281040164,-34.5461815941277,False
5.1015625,-14.621136906396876,-27.644056529634376,-53.27725743720625,-25.66732664957578,False
