time_s,TP9,AF7,AF8,TP10,is_gap
0.0,46.875,-25.390625,1.953125,12.6953125,False
0.00390625,59.650749386691196,-27.846225994710213,5.852277627644894,35.76991816160687,False
0.0078125,76.08196943618131,-30.79957372423945,4.389799378220069,61.509241884660206,False
0.01171875,66.85889465463048,-34.50404041130022,3.949013914443422,59.80201026333947,False
0.015625,64.65248030703772,-23.418513780282122,6.807458170423183,42.19567545423183,False
0.01953125,74.50542993905243,-22.74555111545538,5.418529352575897,27.93876135579577,False
0.0234375,65.96525751924375,-34.22236419168609,7.438023261162905,33.037419642035694,False
0.02734375,51.585319399724014,-35.72763339466422,10.997782744940203,60.24141846826127,False
0.03125,60.888626954921804,-38.18086859858939,4.166696613385465,63.85383126341613,False
0.03515625,68.6953771849126,-40.37787967647961,-1.5075477710058265,23.962855287871818,False
0.0390625,53.9996837626495,-37.29911741030359,-2.488841852575897,4.390398602805888,False
0.04296875,41.718293082010966,-40.767510555831045,-2.6984368619100403,24.901375220596815,False
0.046875,64.20381856600736,-35.992841536338545,10.885572389604416,52.3724090098896,False
0.05078125,98.07517464926403,-16.19997700091996,31.215321699632014,70.13332878143207,False
0.0546875,91.84529884429622,-23.64113768782582,28.165547857252378,54.73592384429623,False
0.05859375,66.01257043468262,-35.69708774149034,19.148081732980682,28.86115024149034,False
0.0625,70.68593558341,-38.17607712358172,24.054552140831035,31.71357520699172,False
0.06640625,84.77751384736277,-41.58012064934069,28.68665071105489,49.2244398765716,False
0.0703125,94.27349859130635,-43.71639978150874,25.060821785878566,61.08322073367065,False
0.07421875,95.13494590424716,-37.21814148267403,29.27690053856179,47.758398257819685,False
0.078125,92.59151118330267,-28.588395526678934,28.183066687749157,10.806003957758357,False
0.08203125,78.41563290593376,-34.624396274149035,15.11201270699172,3.2625452794388226,False
0.0859375,75.57332993138608,-42.72510349586017,14.86501217034652,29.131479272079115,False
0.08984375,90.81127875198226,-38.20773536613121,18.357350293301423,50.790283748017735,False
0.09375,98.19370376226618,-32.481858277752224,15.167354243330267,42.34582830228457,False
0.09765625,77.36001106830727,-44.58452521274149,16.526096768629255,13.347102834636615,False
0.1015625,67.35777704308494,-50.113647797838084,13.477610635157927,20.30830745936829,False
0.10546875,82.22163956135778,-44.208587904758986,7.393451317766466,45.31996226465718,False
0.109375,87.40234375,-38.00735730987427,9.532729367908617,55.81837794196566,False
0.11328125,86.69799692387305,-36.3309100448482,15.580978323367065,46.596944715961364,False
0.1171875,71.41169431347745,-39.89355139336093,14.940957049218031,19.82451821718798,False
0.12109375,64.72053279850975,-28.20640216791365,20.427590160447075,16.915504645529253,False
0.125,69.85934625114996,-35.71478625229991,18.286933887227843,31.895771044158234,False
0.12890625,78.50232865685372,-52.08887347631095,6.567764633164673,49.61602317157314,False
0.1328125,83.71389623581723,-49.73706780895431,9.934674227614229,44.54212065892364,False
0.13671875,80.00848583234946,-48.54956832939787,11.963294163223141,12.974676247048405,False
0.140625,78.78917748834785,-44.74615843094566,8.652394057402184,11.620590675978168,False
0.14453125,71.66070128028213,-40.48362154055504,5.458538168889911,45.570371195568846,False
0.1484375,80.19547899354532,-40.01106403509444,7.275767930516374,69.09745645774562,False
0.15234375,90.76092815662373,-50.18282471826127,6.294530770852499,53.68826783386998,False
0.15625,71.71247915708372,-74.945467025069,5.2553796285648575,27.918816841076357,False
0.16015625,56.458769730084015,-93.86277242656078,3.511845955859806,30.26693946055133,False
0.1640625,76.0024364650414,-88.1434950935296,4.815552169579884,45.71154002798222,False
0.16796875,85.90623754292898,-86.14873119940513,3.114387533729915,62.05244378986263,False
0.171875,71.97723809797608,-101.84085475122662,-7.372582700858632,48.60636954730144,False
0.17578125,56.31500435039249,-109.65968599556912,-13.183533860235496,29.012069224901875,False
0.1796875,48.22394994825207,-95.00138353840846,-7.898566869825207,32.02460182842686,False
0.18359375,58.82000082993032,-77.63671875,-9.42322296747387,41.01144188345994,False
0.1875,76.8826167802496,-77.67184409688151,-16.218657290644547,51.035362270789896,False
0.19140625,85.5863962555961,-79.18582739865694,-20.451635900895376,40.8016987611922,False
0.1953125,73.53389848781049,-81.7855371722631,-18.358117237810486,16.467371253066545,False
0.19921875,67.64614779452349,-74.01344788728076,-12.564094025972034,-0.7900058835704649,False
0.203125,61.65333839920888,-57.2730609131608,-9.6989676921072,17.12517871105728,False
0.20703125,53.828021989605055,-71.92131874386729,-19.206887035447075,39.340029168710906,False
0.2109375,56.30685934241997,-84.21513026263338,-22.203411512633387,33.945877859376914,False
0.21484375,58.82922104990801,-79.56175372776755,-18.05565537795155,10.914890227307573,False
0.21875,53.987059259245065,-79.19292433575065,-26.183445702502148,-9.827551016496995,False
0.22265625,43.686558772461055,-80.04177191294616,-30.368242997209617,-1.3850106939163496,False
0.2265625,48.03413644709003,-72.85928229064454,-24.832093056236967,27.55797568763032,False
0.23046875,63.16363861457197,-74.67467914788712,-23.75042388542803,35.63909250839697,False
0.234375,65.28607184471973,-80.58599020299276,-21.458263062676316,22.524899768490126,False
0.23828125,54.368407334723415,-82.05784105543971,-19.602159481172574,-8.780198814853428,False
0.2421875,37.624546754262234,-83.19371032901999,-23.48229754384889,-7.427229144946645,False
0.24609375,59.85453189197891,-70.3260342567609,-25.471830540565403,30.001704358174404,False
0.25,68.95297240088004,-71.11759810422544,-28.447039241690174,36.88481832799276,False
0.25390625,42.64157221651539,-80.69364205468845,-32.08115015178462,14.807055541288483,False
0.2578125,34.42583443211088,-83.96386275565743,-28.13570230091684,-6.16304605091684,False
0.26171875,40.72450085474672,-83.40470196936711,-23.85723741452533,-0.8335756872470257,False
0.265625,55.59411125505949,-81.0392958305225,-22.234284686235128,23.257022194667606,False
0.26953125,73.86174711379248,-70.89672465273519,-17.763693435315222,46.6548452256838,False
0.2734375,99.48130073860848,-56.271763940420705,-12.84458773802588,40.878896667637676,False
0.27734375,80.30986219436595,-58.771396410602044,-15.288065945591374,8.546906987053804,False
0.28125,46.966865264916905,-68.82292329406083,-17.535725646961428,5.077142868093457,False
0.28515625,59.815561085643324,-65.30706320717835,-11.642839723491353,31.907619559134673,False
0.2890625,80.06177609692156,-55.388316990019625,-5.550931683862759,45.71859956613724,False
0.29296875,78.67185343968478,-68.02830438182264,-16.176165502729056,34.653175978167546,False
0.296875,59.04358202118852,-74.96461712713112,-18.99170311158469,11.577769494357906,False
0.30078125,58.28383947461213,-66.20928464386459,-17.08984375,7.211273580747532,False
0.3046875,79.52055129246904,-60.215714547175885,-16.915265086471237,34.96529148587943,False
0.30859375,90.80052014663949,-64.51250206008156,-12.32578537016312,55.83566609623168,False
0.3125,89.33756171041334,-65.18869108763646,-15.13671875,46.969685717680605,False
0.31640625,67.55306865916478,-49.8046875,-15.014551122600723,17.60216926588275,False
0.3203125,52.86113168657243,-50.31276231716853,-12.722053279850975,9.965656813442905,False
0.32421875,63.61401280838697,-58.752150509871285,-12.963673256580854,31.345549905418334,False
0.328125,66.02145191673822,-53.206487005197154,-9.296746843763415,49.27760006247317,False
0.33203125,81.49311052105054,-50.78125,-12.168252627483747,43.13018286022017,False
0.3359375,76.62868610872631,-50.83637514755933,-8.89931279511866,14.506687120561722,False
0.33984375,45.01350072054946,-54.37228955548231,-15.76752889863249,6.2869616958974675,False
0.34375,49.81588688596222,-62.462538952302836,-22.386015404605665,27.016512326750888,False
0.34765625,68.89212167320782,-61.00551263452812,-19.60535903867971,51.52066357622493,False
0.3515625,69.67878537591218,-60.31550508408966,-21.664362649092414,43.174578497731034,False
0.35546875,51.68250112113639,-67.28564135709249,-12.950383007021955,21.253589792484362,False
0.359375,38.67368954858343,-64.54957155094438,-7.737822043447599,3.7756384336481266,False
0.36328125,52.42509327857668,-55.95975007857055,-16.240449366069786,2.8302765875084317,False
0.3671875,75.23466007527904,-52.48352672137557,-9.356488073791855,39.26013622286275,False
0.37109375,82.94515253647987,-57.70442222905866,-11.96964584122153,48.950998827692665,False
0.375,56.73892801979211,-75.77318334342614,-32.693763845664435,9.449426434966579,False
0.37890625,21.132454381170664,-83.93892145627645,-30.617782528208746,-19.197924012693935,False
0.3828125,30.130998430505304,-80.82741978138223,-21.514018615471883,2.4965912836511928,False
0.38671875,46.94812091816398,-69.4951746182621,-22.961405569693998,28.796406930306002,False
0.390625,50.08004375038327,-56.40874605230882,-23.4375,27.914524341540442,False
0.39453125,58.796464420954194,-49.13048987781321,-23.353509756162996,14.127697988210585,False
0.3984375,50.49469505043846,-57.86553512295333,-20.957886423391795,-0.29724461695897464,False
0.40234375,43.84239825113448,-63.60088602670632,-20.340670417612067,5.058218863064941,False
0.40625,52.69667670517263,-55.52177314573496,-27.177745753357453,20.29012655608021,False
0.41015625,61.497415397323074,-52.96857392409236,-23.743626531261498,34.427631125046,False
0.4140625,59.90091367012633,-56.533428895566324,-20.592880693490525,20.12328390415159,False
0.41796875,41.06479617974239,-46.552985948477755,-21.709190207845435,-1.6603849531615924,False
0.421875,34.37611388130864,-41.81818846009382,-17.72544478598148,3.204684433832097,False
0.42578125,44.29699357446189,-56.886367577957316,-24.671932011559452,17.11089371128963,False
0.4296875,58.20649658697185,-47.117927931639784,-15.36521413350095,37.094942451861165,False
0.43359375,60.920863643680626,-39.129452650702156,-6.936366476053228,35.867876429600784,False
0.4375,43.678699619028635,-41.14893144048568,-9.765625,14.000949074783835,False
0.44140625,37.36555199135394,-44.711118823966764,-10.064498156579592,-0.7576323736816286,False
0.4453125,44.69337961649905,-50.56862443084258,-16.696062752958852,27.044379426779912,False
0.44921875,78.84665734998774,-46.464510783329246,-18.684340888882076,58.19598657785,False
0.453125,80.15594697637518,-48.020980253878705,-21.19374779619182,31.94075612658674,False
0.45703125,33.44707099520145,-50.41474711780217,-24.44460440684982,3.2347173089010854,False
0.4609375,30.573496763276506,-44.494857221975224,-24.475325971975224,1.9007246696204083,False
0.46484375,42.24561819053991,-37.93364934680645,-18.25125988796095,23.23751231400341,False
0.46875,52.329180607293964,-29.612605057717072,-14.642060022305003,46.35986148477741,False
0.47265625,54.3285128223309,-38.9332059276691,-28.433676871895504,30.491273159149443,False
0.4765625,44.752966277902125,-48.14835797127001,-31.25,-1.1878705751364445,False
0.48046875,30.814026043582903,-55.01655389609394,-31.320511549162987,-15.778927759765146,False
0.484375,41.68437298782732,-61.781247125467594,-32.766405675093516,1.6484245646041578,False
0.48828125,43.489459568743484,-66.9118083875023,-34.05653175208499,21.393647570828477,False
0.4921875,19.138211738487247,-75.2257028279832,-40.67725938764717,1.4446334333609272,False
0.49609375,4.8466712435610475,-75.94493665488747,-50.88099028599681,-37.2779244055467,False
0.5,-9.45221113823818,-80.56910112413381,-59.64160689236218,-58.93944246527565,False
0.50390625,-9.92946330022075,-93.74631723119022,-67.080915281227,-41.89877092531273,False
0.5078125,12.588954800852395,-99.41160118162446,-69.17771844529956,-10.755811585898694,False
0.51171875,20.402287736855584,-96.74070181802664,-66.91670311966541,-6.885949236087402,False
0.515625,-3.368146576833456,-91.83424162987491,-61.52966527164582,-24.669401137478538,False
0.51953125,0.6243341074932548,-94.85411205389993,-62.18178482186657,-44.3740706248467,False
0.5234375,8.042073333154473,-102.01844276039431,-71.75578475692954,-40.51976815937941,False
0.52734375,-3.1301139586399316,-100.52051595650907,-70.5390950760363,-18.63319335218911,False
0.53125,7.431737634519868,-98.08309188741723,-60.77403895902318,-21.85301117549669,False
0.53515625,10.424750793322296,-96.27958311296602,-52.875457980745644,-33.74982155038938,False
0.5390625,2.2916311342521616,-98.51333974673453,-56.939306883163674,-48.33984375,False
0.54296875,10.209473494603875,-96.23631806475349,-64.07592563849032,-47.07351022121045,False
0.546875,8.10173208701251,-107.9606970122026,-66.74913673503802,-20.189417674607554,False
0.55078125,-14.186925333062488,-118.19083158306249,-73.50987833062489,-14.963228741874655,False
0.5546875,-14.27048960824442,-118.27439585824442,-77.57261461974184,-29.53541661876073,False
0.55859375,-8.417754243650611,-112.33393074841266,-68.61371026269877,-40.72319251587347,False
0.5625,-10.248208425094383,-112.7915442937736,-64.95280189981123,-36.14705706226404,False
0.56640625,-7.319727568524651,-128.40599226606574,-68.84391359877054,-24.88737314508217,False
0.5703125,-4.388483125613196,-120.56918000367918,-66.43649062193403,-15.233488740188864,False
0.57421875,-3.4232683441409124,-114.85738522695917,-71.25726493515452,-31.005500080481973,False
0.578125,-3.997151513061074,-125.03787563044212,-68.30634911738105,-53.13175473693892,False
0.58203125,-9.578462497317268,-127.3231983535688,-64.9709582241078,-46.8313457160596,False
0.5859375,0.09377586920529801,-121.09698365066225,-65.8241928807947,-20.159386641142383,False
0.58984375,23.65490312461675,-101.5179175385547,-42.17665529379752,12.997748660550037,False
0.59375,46.64151844570149,-83.66750717630917,-15.713027156916851,22.415546625889135,False
0.59765625,39.8116290700883,-74.68807846417403,-4.39453125,7.0967853200883,False
0.6015625,34.43442731328182,-74.68577299101668,-4.755412652149252,2.5262596386742704,False
0.60546875,40.54584095302081,-85.02703903735053,-12.871583266268107,26.672124698206485,False
0.609375,51.12298512409462,-86.40666653792539,-16.550589934467695,43.22765470510463,False
0.61328125,51.26953125,-89.32834201388889,-18.052842881944443,30.879267939814817,False
0.6171875,44.46544924389907,-87.41144531968546,-15.150371104528174,13.751513734747686,False
0.62109375,56.640625,-86.42578125,-14.16015625,11.23046875,False
0.625,61.952558547044575,-86.87310543641547,-11.691445290943651,34.2707031968545,False
0.62890625,49.30284288194444,-78.07074652777777,-5.8774594907407405,53.65668402777778,False
0.6328125,47.831173786329636,-72.265625,-7.690167717977804,47.56612050861487,False
0.63671875,46.133535879629626,-72.46455439814815,1.076027199074074,27.244285300925927,False
0.640625,33.009105960264904,-83.09835471854305,6.0533940397351,22.5045917839404,False
0.64453125,45.77715309606659,-86.6693979359556,-6.238916443758048,45.53353641011098,False
0.6484375,58.657105600012265,-77.90325539995708,-2.219661649957076,66.72030334996627,False
0.65234375,60.290960917196074,-70.87959996751371,4.275104678024834,60.4656592910771,False
0.65625,53.36055375577534,-59.79094850924054,1.040914669361825,31.819976357204737,False
0.66015625,43.126560440171076,-61.012611901404135,-4.31186863848182,10.577041913207431,False
0.6640625,46.83308230623007,-67.31469624762387,-14.055362015575177,22.81298624524773,False
0.66796875,54.154309689052056,-68.35338712520694,-16.58659281301735,50.12530825579435,False
0.671875,66.3882852740986,-67.87181233903605,-16.113999839036055,53.70590737674761,False
0.67578125,63.89613288674965,-62.50152690807223,-17.578125,29.235798677110797,False
0.6796875,42.00350527731788,-62.99205384243929,-17.510218336092716,9.886347958057396,False
0.68359375,43.698941391639586,-63.530992281868905,-8.861635542491875,25.680917169967504,False
0.6875,63.01316086976516,-67.87938695658839,-14.806008425179348,48.80324538023484,False
0.69140625,64.20018165930831,-68.29613916482708,-23.820388191378466,47.02602346241109,False
0.6953125,52.31151128211417,-65.58345612468575,-19.2095514267429,31.23853321977129,False
0.69921875,36.820379513446156,-70.97589915744176,-25.333686210443954,12.766485986945057,False
0.703125,43.311627919612846,-60.77536594775125,-23.479043808682043,15.084788989147444,False
0.70703125,73.66983780008277,-50.95550784124356,-16.24397463093267,40.07427336276674,False
0.7109375,72.7733069643295,-54.15395041656447,-16.11328125,48.71818761879943,False
0.71484375,61.620530889769455,-54.19921875,-8.368324477665706,31.40197226224784,False
0.71875,52.76994297627077,-47.87725048286222,-2.951423485498805,11.311484695950089,False
0.72265625,40.52734375,-46.39049111111963,-6.840248769851002,24.910966289702007,False
0.7265625,40.71093199115519,-53.25032023154393,-14.673586574130848,40.62794004652339,False
0.73046875,76.34324797657735,-58.550906755855664,-19.469365314013736,60.20140456381446,False
0.734375,93.40671513811392,-53.91898620968484,-13.057489106858176,74.4057812691612,False
0.73828125,69.46341935434423,-34.8252402814397,-4.376028716889447,53.34088683778895,False
0.7421875,51.068667990066835,-43.24467127046416,-3.4639556284106936,34.409621892053465,False
0.74609375,63.60277730683409,-54.66135123162408,-5.3972425183759185,44.677478014525725,False
0.75,85.53720736167017,-53.72797122929063,-6.330622520709369,70.81211807986233,False
0.75390625,94.12427211394015,-54.67408716046355,-11.163404552317738,77.54953529301307,False
0.7578125,89.40037505748008,-46.946850091968116,-10.262887511496015,50.54444407188841,False
0.76171875,72.8302516536115,-43.95878521828438,-14.628228422573425,48.34882556218959,False
0.765625,86.42578125,-41.9921875,-21.484375,85.44921875,False
0.76953125,101.54453637562082,-31.263472718284383,-16.597071593905206,100.04601082990986,False
0.7734375,97.56643187810411,-34.27399652799068,-15.611527281715617,88.60671494650194,False
0.77734375,88.07923149141631,-44.13721212063152,-14.099532734901901,60.47277959265788,False
0.78125,101.97428614951868,-22.86865189465939,-9.84619185534061,55.48014492573119,False
0.78515625,123.6427284206573,-18.890607275890613,-14.272129508630204,72.18044748106874,False
0.7890625,106.89760662249371,-33.28378167346251,-19.09673986564167,89.35546875,False
0.79296875,87.89948828536714,-36.117830688605224,-21.085984618368663,88.56143274607682,False
0.796875,72.90944261257172,-35.649391761330364,-23.8966181820178,63.73416960050943,False
0.80078125,71.29768451103618,-36.61534574264255,-23.440374003678723,58.13708279046597,False
0.8046875,81.04211296293458,-49.30005935181495,-30.264635324054204,74.19800201384206,False
0.80859375,84.97387051655426,-36.57744481912937,-24.38981309396076,89.33930247930718,False
0.8125,88.81353614185419,-23.445164479735116,-17.101340469602672,84.20823169913851,False
0.81640625,81.88539431330472,-24.40190785944206,-18.499991617489272,50.75694071888412,False
0.8203125,70.14663586823227,-23.54531168564903,-14.068930977527746,49.20961250306579,False
0.82421875,60.97896004506714,-29.80623356927157,-8.947142394536758,71.34175579817892,False
0.828125,80.89877280042919,-30.825635394313306,-16.317814511802574,73.51315215933477,False
0.83203125,92.40674004767307,-32.8581335937979,-23.625788722867743,64.88970095116194,False
0.8359375,64.98131543549574,-21.88643085297995,-14.05668577357594,47.230739641455635,False
0.83984375,52.99619739880567,-19.662161199402835,-11.623202348208508,30.834485497440724,False
0.84375,59.597615534947884,-22.927603847332925,-21.485512626456163,44.995820719650524,False
0.84765625,71.27900287034765,-13.655108950579434,-21.935770941274757,76.69033513895702,False
0.8515625,69.5499010863734,-11.252862028663397,-16.635152417995094,80.646010164393,False
0.85546875,45.76559649771598,-13.207036279814826,-19.49217911697529,45.12103171561714,False
0.859375,38.09054788090129,-14.738968615879829,-17.140138814377682,27.71593347639485,False
0.86328125,61.63391378993194,-19.214820756560794,-19.555800286651543,45.925712269682386,False
0.8671875,65.81633080740343,-25.69015007089209,-20.43521396957388,66.15028404736358,False
0.87109375,62.43305966431637,-19.19654832158185,-17.982730830395464,73.26188640021459,False
0.875,59.6561486851585,-9.993044484640382,-15.700806494880128,58.864641455637994,False
0.87890625,38.0003760154813,-15.370650674432863,-17.323775674432863,29.869160982526058,False
0.8828125,47.76467843675271,-9.344198372064504,-11.554861866913974,43.861811586010795,False
0.88671875,65.4296875,-2.090533536810814,-8.91965404822823,71.16528794035436,False
0.890625,65.34897589668915,-23.07028615496628,-20.36656719420601,68.39365348137646,False
0.89453125,61.31426391975782,-28.390246589515634,-13.536527389255058,46.28439224402207,False
0.8984375,53.135538013488656,-11.945676540465971,-8.387899486511342,23.800492652130593,False
0.90234375,50.8452603815378,-3.2840798696271998,-11.1969965299068,36.531545082469805,False
0.90625,66.76687758660331,0.298477257050889,-10.121043454935622,62.092849478847334,False
0.91015625,75.2808739845187,-4.3097481414776215,-6.814741722869405,75.64198057173513,False
0.9140625,65.44639264638259,-1.856127375843041,-6.48812317979767,62.70064138182097,False
0.91796875,46.33546254177141,10.124418457600099,-8.969806500628488,37.77705297880005,False
0.921875,46.4692864806867,17.13112761534335,-3.3064813572961373,42.60432034603004,False
0.92578125,64.41615214017474,25.36742340780196,-1.7958032361281422,69.08835405809319,False
0.9296875,71.93515419017108,17.12586081688025,-6.512891654914465,71.59094120769207,False
0.93359375,79.76268047793064,10.871388202206935,-1.6947235955861277,53.10857001468902,False
0.9375,61.442695959150825,12.678607353617412,1.9503408089362355,23.884018384043532,False
0.94140625,47.548265299279585,9.865616377988964,1.514839438994482,16.916535340665234,False
0.9453125,65.51626155278646,19.653896574780823,6.340441745601128,47.62300340835939,False
0.94921875,71.33606443516247,27.550019639025138,5.887576161097487,64.75339850935009,False
0.953125,73.76531604460453,13.102283395922747,7.544918282495401,54.72276642014102,False
0.95703125,74.69739136266094,10.083741282188841,16.463251072961373,35.93917650214592,False
0.9609375,57.649280541079094,20.64307029812998,11.445959150827713,29.55361932863274,False
0.96484375,59.799035292765176,10.12607296137339,3.3814449532495403,37.821589036633966,False
0.96875,90.39028969957081,6.672119290312692,2.1547243830472103,55.968048264101775,False
0.97265625,79.63600743408952,3.1339213864193747,-4.439916558093194,50.146634062691604,False
0.9765625,60.47215090435316,7.448758909411404,-5.396001781882281,16.218062634120173,False
0.98046875,56.00285957992982,9.205775605441787,-5.732136501236769,1.1705941886217213,False
0.984375,0.31947255738035096,-0.9184765804763,-3.4311700953462956,22.339485122814082,False
0.98828125,0.0,1.949532495401594,2.921903740036787,56.59871244635193,False
0.9921875,0.0,2.436556666130219,-2.44140625,57.020598876908224,False
0.99609375,0.0,0.9765625,-2.475624856299816,24.319010815833845,False
1.0,0.0,0.717812356299816,-7.022478301272225,12.291275482832617,False
1.00390625,0.0,-20.159480661056957,-22.05497943297468,19.265241344031637,False
1.0078125,0.0,-27.99734633660331,-26.75128611664623,32.34116339668915,False
1.01171875,0.0,-13.335197444052728,-21.909488044144698,36.978607832618025,False
1.015625,0.0,-19.072664967276683,-19.26398404450984,13.315520392679787,False
1.01953125,0.0,-19.5936697673973,-10.639980744175352,2.3619520232985898,False
1.0234375,0.0,-8.120478511434001,-7.793251343035375,14.403323964655755,False
1.02734375,2.0019277069234773,-15.665442983978252,-7.566876653869512,32.408555927902135,False
1.03125,47.81140193909422,-16.59088690786049,-13.119540197162936,36.5730535853722,False
1.03515625,50.27907858385446,-15.14713637460916,-16.09244600078168,10.926232201428483,False
1.0390625,40.55249128218884,-11.240527762875537,-14.652209629828326,-15.55710166309013,False
1.04296875,32.24141060863834,-13.698787196906995,-30.27807753394948,-1.4100913493961131,False
1.046875,40.10755958767627,-27.810236722103003,-32.655687174279585,27.44649563151441,False
1.05078125,50.77592144488382,-24.318148507908774,-23.37888589372203,43.39308858860585,False
1.0546875,50.18777469000981,-15.63251386142787,-18.043864665716388,37.19942159432285,False
1.05859375,43.427931962752915,-16.01628362584304,-16.397867489270386,11.873946198651135,False
1.0625,42.683223265740914,-11.004094964671081,-6.192768923196002,20.103141668199374,False
1.06640625,70.65089318558029,-2.0236235803292257,-0.2537948891852124,43.16614602492183,False
1.0703125,81.15180487431024,-4.313101145769466,-8.83792056253832,49.592969229000616,False
1.07421875,55.348489607541254,-1.7252112443353473,-10.359097214152916,42.580439882059025,False
1.078125,46.98223350714618,4.317084828172206,-13.147849247617941,19.340839603183824,False
1.08203125,44.45409970648642,-5.289069924054321,-21.898834806648885,11.296087810756545,False
1.0859375,43.460863019971185,-6.830189845043222,-14.19081040976948,39.926025285850045,False
1.08984375,72.2672415279566,-0.976831921326099,-10.254445092652198,63.95325863297774,False
1.09375,75.00629847189013,-1.4722079329133713,-11.220649839448837,42.78219069952792,False
1.09765625,37.63477652159585,-2.846166888909325,-9.217023308656735,5.919695441343265,False
1.1015625,41.66771441626816,5.702392173993011,-2.943338180522347,12.60290098514806,False
1.10546875,53.240678648068666,-5.54230653165236,-4.041417985515022,40.842735716201716,False
1.109375,54.760513179372815,-14.390242062488504,-11.208016972825087,57.47125094836307,False
1.11328125,78.23776779282386,-3.6593702581846608,-10.347784614294035,50.54532672544602,False
1.1171875,63.66249315071118,-12.316206758475875,-13.593892493945804,24.590413725783215,False
1.12109375,25.30801642906055,-15.523581830234862,-11.348789948059327,15.779033825179207,False
1.125,36.49747968449502,-12.726216016376245,-14.612383397561047,33.49568397961711,False
1.12890625,50.20244318443075,-20.941131799475812,-22.894256799475812,48.727900266691194,False
1.1328125,42.00999924322543,-27.33012925518055,-24.898152751594015,36.6472874900374,False
1.13671875,36.148738293942735,-15.121930512767458,-19.527837329869413,14.64616238657961,False
1.140625,43.08504307603298,-8.782417181369544,-18.006598382325894,13.874557218228912,False
1.14453125,60.15172372172154,-7.757717663693213,-9.332126086306786,43.66520412796579,False
1.1484375,68.36703853994237,-3.190247858040586,-14.405389528155846,61.8584479511526,False
1.15234375,68.57188855488627,-19.600191923778432,-29.706365479967506,51.66501182101036,False
1.15625,54.55000531658084,-22.84091137690822,-25.87890625,22.932065592238366,False
1.16015625,30.02688705091656,-18.76797938316167,-25.87890625,3.3562712663233403,False
1.1640625,38.77493763794372,-25.895311015189137,-25.66564430254123,18.070267955674083,False
1.16796875,58.52260437441342,-26.207109842430196,-19.300026716843618,32.43999937675974,False
1.171875,56.64555134766542,-21.983740532247182,-13.1996043799126,38.071158457003754,False
1.17578125,56.630746218043036,-21.473598146956043,-11.711565431304027,19.5052059384771,False
1.1796875,51.25103211975846,-15.66199826048308,-7.8433318837359,5.494421284943599,False
1.18359375,48.3660374900374,-21.62582119620195,-12.70055124800748,25.028073702179512,False
1.1875,50.92973108638342,-34.74220929319171,-13.11677726112746,36.50973293521243,False
1.19140625,60.41235219853482,-39.762174223730995,-8.894758986865497,28.854871509471554,False
1.1953125,53.48740760644657,-50.1400272438845,-14.07780313132242,6.318289325455214,False
1.19921875,44.69864446347557,-43.56866148611367,-10.797987650205382,-14.383386786524431,False
1.203125,53.565728307764225,-31.471630356486024,-13.017999593857283,-4.548241660663928,False
1.20703125,49.7005112539084,-52.53874518154926,-22.351193213169026,19.256889282922568,False
1.2109375,59.95935689488689,-59.771929459030716,-19.36744183373184,11.469894501793268,False
1.21484375,68.150613112514,-53.0483954656285,-15.516087009767812,-5.74139791678944,False
1.21875,52.99096811396518,-49.33700075098087,-13.157850623773909,-13.646131873773909,False
1.22265625,31.25730431150757,-51.34257436507571,-10.83714354959843,-10.836035928591135,False
1.2265625,32.04193040399706,-56.07643146150073,-17.22269025487371,15.497302120371506,False
1.23046875,47.631115983845255,-52.30431869214027,-23.80933136571945,33.15573678230948,False
1.234375,58.31716106240804,-54.85345336255517,-18.918503728083618,10.483678618501717,False
1.23828125,48.49242602768071,-60.578846330697075,-14.744351492091226,-14.944890765817547,False
1.2421875,39.26467334247793,-61.2327197768514,-17.50544556921285,-7.932774280437714,False
1.24609375,58.0029389675679,-53.52800041957881,-15.564020973192937,27.668522440760835,False
1.25,78.05746919445806,-50.261837527587055,-14.182666518513978,45.21618478727317,False
1.25390625,75.20480211781927,-70.07088894189503,-14.919774711084544,20.00941298241984,False
1.2578125,47.09974347872732,-74.08946562538316,-20.20748600531817,1.4916944293311671,False
1.26171875,34.57157198426315,-63.392587253372184,-22.793689775853398,3.2967289460450804,False
1.265625,41.16379764513855,-62.132950914204265,-12.247441971401422,25.862083416349925,False
1.26953125,46.60548886679235,-66.68752586444731,-14.04690948592974,42.121060700983996,False
1.2734375,53.04454973715669,-75.42685096669629,-25.31938239486268,30.110118317802844,False
1.27734375,48.25998019096371,-81.4631051909637,-23.11804576385483,-0.11979533855443845,False
1.28125,46.69643353220219,-79.67833368777205,-15.51438757778493,-1.4696035267610816,False
1.28515625,53.514331856915156,-81.9318695592202,-13.35373785403384,29.80730731210152,False
1.2890625,59.95526203868318,-89.51423798430604,-16.972024046714075,38.75693507846984,False
1.29296875,73.707148837441,-92.88614542141806,-23.580592659861445,23.500035683357858,False
1.296875,47.43293736014897,-102.35425080079082,-25.663292600922635,0.7609488509226336,False
1.30078125,13.426447218688695,-98.98318842148419,-22.427980311657063,-0.6617180794813635,False
1.3046875,32.31008311109068,-90.40226040900313,-21.832197931993747,25.470822748068787,False
1.30859375,59.11681852539118,-91.06449510481745,-19.984660014973922,44.817345254556656,False
1.3125,65.80841079420058,-87.80297863536047,-19.492904715470207,36.82452431492153,False
1.31640625,56.19050943132356,-80.02469304614701,-15.99115106976459,11.543187865911598,False
1.3203125,58.48607787786599,-76.71888649843673,-8.379088247915645,0.6742603700496567,False
1.32421875,53.15099457071481,-79.53012568392901,-12.314523768927783,10.183651462496934,False
1.328125,50.321166453377884,-77.00744898311059,-16.643859055066823,27.010556118578346,False
1.33203125,51.220768979508954,-72.47692817212788,-18.00138988934527,31.462620262306892,False
1.3359375,49.67582219953102,-78.31873199178519,-15.966006620892594,8.72506389084723,False
1.33984375,45.95486284062347,-70.82134581711317,-12.577193458037028,-4.733592169491785,False
1.34375,36.67808783410986,-71.87977744528568,-21.041533361175823,10.538098389988965,False
1.34765625,48.34906338125307,-83.81024969156142,-21.450280324684282,26.44181263218796,False
1.3515625,57.644217782537396,-80.75561822776177,-11.71875,26.696759383429377,False
1.35546875,57.50239206361202,-84.011787576654,-12.020288343193988,6.447016297072033,False
1.359375,47.36822957152934,-84.47243132629413,-17.08736958923533,-8.293583691411873,False
1.36328125,39.60250380256544,-73.72280614961994,-18.562350100380065,8.3716603035156,False
1.3671875,52.82731965922327,-71.8541241206627,-20.564387509961993,26.379310716420427,False
1.37109375,63.82852491647254,-81.07327643184466,-27.393320484919077,27.59657144663438,False
1.375,53.14749230819336,-82.48612505364149,-31.22494535273112,8.918227139146028,False
1.37890625,48.80711271302029,-80.54539396302029,-29.76414396302029,-11.666219282550726,False
1.3828125,47.49786391920059,-79.45089073611452,-28.694904920457333,-8.620474957086808,False
1.38671875,34.72681873390755,-74.11523868547695,-24.2070398709539,16.6160504919691,False
1.390625,52.68660054714321,-70.66524069703286,-17.64589527648357,32.24045181461501,False
1.39453125,64.97959952376938,-66.3216321434592,-19.35938026803776,18.183620090188807,False
1.3984375,65.62084517916259,-52.67055599405346,-15.518734769648113,-3.0358030610133646,False
1.40234375,59.47993617217843,-62.03382457900991,-24.2794745141586,-3.867897377325952,False
1.40625,67.82727835524028,-62.49756581140224,-31.699334232435803,27.666506425352154,False
1.41015625,74.70074552312573,-44.9380382976767,-25.884294015892234,53.687141533975975,False
1.4140625,69.26598633949918,-48.36543563798811,-26.36377524826825,30.649114442852326,False
1.41796875,49.28192243440412,-55.644904824668956,-25.375298859735164,-1.3728869084109858,False
1.421875,45.14337204223625,-53.15680577798382,-23.407567967265372,10.631049862456322,False
1.42578125,63.036953718887936,-47.68120885889223,-20.88252465592815,41.258987344439674,False
1.4296875,65.81530187772022,-37.49498937772022,-14.273089809507754,55.232861636424936,False
1.43359375,60.81208906786415,-33.01226665951447,-19.679961454757233,34.46226321113291,False
1.4375,52.49339220445351,-44.36085891045485,-25.201514417182615,7.914328775363208,False
1.44140625,60.813645628984794,-41.725416871015206,-19.04296875,11.680644186411843,False
1.4453125,68.77357446898179,-34.10437850563967,-18.911178009869428,25.317770432323915,False
1.44921875,80.07302693590488,-32.44464635295824,-15.387090342227378,47.83173669518561,False
1.453125,102.81084596142692,-37.549054705626446,-9.818644866589327,47.36769957221578,False
1.45703125,72.42403502789358,-40.026490275564,-10.7371586102256,17.731506138119176,False
1.4609375,36.16160711549071,-39.0632782328511,-11.7179717671489,1.4776845920431576,False
1.46484375,54.76735866333599,-37.093750478912526,-7.3120663447097405,29.406246647612335,False
1.46875,77.18319072040522,-32.741874032537396,-3.941003220405223,59.96977996451999,False
1.47265625,81.3444295768712,-36.156877854318644,-8.366960974376264,48.449095669481395,False
1.4765625,65.19358362578924,-38.10222052580764,-13.712582564519096,17.96056658225035,False
1.48046875,51.32086468613989,-38.77503275761662,-15.990081003264267,12.20128429971495,False
1.484375,54.1570718642717,-25.192343060323687,-10.26629887122977,35.02735476566332,False
1.48828125,71.47817308281739,-17.98544010145283,-10.858563243272236,48.42080989854717,False
1.4921875,77.28660376310305,-31.233327857766813,-14.481716077668118,34.37265931504015,False
1.49609375,66.93484805045871,-30.77963732798165,-9.586439220183486,12.027845470183486,False
1.5,55.247826487903936,-31.247118190483842,-4.911630595161573,7.353036845161573,False
1.50390625,62.48653058526942,-28.325700265892234,-2.445896054910194,30.231233333844173,False
1.5078125,76.20010090686876,-30.26852864663152,-3.8767968797891252,65.9425130168424,False
1.51171875,87.43586762666278,-28.286788623337216,7.8125,75.55285063101515,False
1.515625,92.08248645635383,-23.514185867866118,7.653650702277325,56.37222446246858,False
1.51953125,73.95265422898915,-30.311451181572977,-6.279231623168639,32.78326837683136,False
1.5234375,57.060810875528716,-32.8218507670263,-1.8947575361674738,37.65413799577024,False
1.52734375,53.983558454147,-38.038525160148346,0.8698847353337829,64.38200649022252,False
1.53125,65.01129754643536,-36.007008166416355,-3.487860046435358,60.712698461349845,False
1.53515625,66.96412322610801,-31.75438468361123,-5.843271566388769,32.623401389995706,False
1.5390625,54.55989974445228,-32.49999161903084,-5.407550965870778,15.7890574714185,False
1.54296875,51.737400554837954,-39.33634115194927,-6.425634467472992,21.20869906646313,False
1.546875,62.99211255019003,-34.177771849904985,-8.299823424952493,49.84204267685282,False
1.55078125,64.94757224874333,-33.193876001885,-7.778587006911666,68.77058126570833,False
1.5546875,65.86588701304174,-31.70182403412922,-2.5351533765248573,56.31771823085882,False
1.55859375,60.807822461380496,-28.6429798128793,-11.31846892623981,26.227853887620302,False
1.5625,45.96464309795268,-49.96547252359936,-17.08984375,17.57219882079809,False
1.56640625,49.29329872072886,-58.1401300439067,-17.205381396355666,42.39656926224484,False
1.5703125,48.14833860456385,-59.36512841560412,-21.753793226644394,58.58958944744989,False
1.57421875,41.75677206254215,-51.77197035148348,-13.907290437457856,40.95076228506406,False
1.578125,49.51362841368847,-37.812807701296514,-6.311797674783914,24.575426088472383,False
1.58203125,54.908099081254214,-43.35675894033899,-5.571638369322013,29.45033653183044,False
1.5859375,60.74612032801581,-40.63859429592681,-10.143014866449063,45.52032930879919,False
1.58984375,74.56496852339052,-32.94830448207758,-7.625731414337932,67.47222421810518,False
1.59375,61.64208807776007,-37.59765625,-3.989939963526022,49.3164960460982,False
1.59765625,36.023620444584076,-37.59765625,-9.774724337951326,15.524907282535402,False
1.6015625,30.2734375,-37.99049009861162,-10.444711262182787,10.478382734920928,False
1.60546875,30.752948664408756,-54.8206975456691,-18.714524554802917,20.325885605038927,False
1.609375,47.8515625,-59.36952842441611,-24.383172642217865,30.84843184883222,False
1.61328125,47.8515625,-53.25779430243962,-23.209102659142456,18.062754765845288,False
1.6171875,48.00888526405321,-54.17955340449335,-16.853859603920185,4.784485772466744,False
1.62109375,51.60527886118433,-53.86347113881567,-11.557326547462146,3.007959765601054,False
1.625,48.65072871651649,-57.631105042065094,-19.056886292065098,15.830231367613706,False
1.62890625,54.011215652393794,-67.17472500842887,-28.730560940660823,28.958732826196897,False
1.6328125,41.345056952277325,-62.885704173818425,-26.977980559982836,21.34546043607859,False
1.63671875,30.060425021457323,-53.63174425831656,-21.317520042248727,-5.963973664836629,False
1.640625,19.17792401273446,-59.96862357484369,-26.412172587578155,-22.334422553098566,False
1.64453125,24.206603581116287,-56.6845352920217,-27.849122440691474,-2.023854393351928,False
1.6484375,46.10190298593233,-44.375948188672304,-28.089730254689226,22.872358001563075,False
1.65234375,61.79483124080488,-43.65072143382578,-22.56749553653528,19.291165165435544,False
1.65625,34.66024675891872,-59.64834052615851,-25.74601617092681,-18.69916056569511,False
1.66015625,16.004807563369706,-80.38768208254153,-42.30174458254153,-29.743610588564334,False
1.6640625,31.71062574705774,-76.18049489702096,-38.84125597646194,-1.1692531146561236,False
1.66796875,30.98222803515601,-59.9098315473089,-35.513279286458655,20.198045893229327,False
1.671875,26.21795553282457,-58.57345732576315,-40.82437103484737,21.419187028778964,False
1.67578125,18.516703750459754,-71.82397785700056,-37.27058892830871,-1.337602678845093,False
1.6796875,36.73135659939316,-66.09844784387643,-27.16129551305627,-12.04558776204487,False
1.68359375,23.982863279455675,-68.68134456103583,-37.324021374023886,-1.7240118640904916,False
1.6875,0.0,-72.57133204226432,-39.88570016550202,26.05417748942626,False
1.69140625,0.0,-60.65026024106541,-29.944933440737447,37.118324677787655,False
1.6953125,0.0,-65.94101500245188,-38.17812250980753,12.268956829640187,False
1.69921875,0.0,-67.24860549221528,-42.15560638102244,-5.330239029744392,False
1.703125,0.0,-80.01410430650056,-48.00869603944465,-3.3405692579992645,False
1.70703125,0.0,-92.55973588635528,-52.80560887121491,13.72530040341118,False
1.7109375,0.0,-86.6951096805462,-54.64769039646294,14.181288265110648,False
1.71484375,0.0,-81.34471111851784,-53.6007943713988,-8.983668647327448,False
1.71875,0.0,-76.93132384378448,-51.17303629168199,-23.172138864625474,False
1.72265625,0.0,-72.04599720715336,-48.923123448418536,-16.676807017745496,False
1.7265625,0.0,-59.881785232636545,-42.9549214008766,8.32218265340526,False
1.73046875,1.7492350814950626,-65.57227791873592,-58.59375,15.569227042068487,False
1.734375,29.752472473795514,-75.67102306684443,-58.515811764435455,-1.0972410582934902,False
1.73828125,23.27617623283683,-73.26984300294225,-43.498514504413386,-24.48781050784602,False
1.7421875,6.716396289230109,-76.05119644170651,-47.67054466255976,-31.643282801581464,False
1.74609375,33.528705693729314,-67.24202084865759,-34.544776055075396,10.878669202831924,False
1.75,51.117006961045725,-59.63568005240897,-27.97366094688611,44.36625080452372,False
1.75390625,43.86204668919333,-62.577938235564545,-33.98484191108864,19.08427242322545,False
1.7578125,22.49667415639941,-65.95765619253402,-26.961062488506805,-15.393160686373667,False
1.76171875,8.919258861254137,-83.0177493257325,-30.445236836459483,-22.303624379367413,False
1.765625,26.264407200104205,-96.42911188243227,-35.02132466746353,9.752814875260512,False
1.76953125,35.687271572728946,-90.07558931362634,-31.887872379551304,32.30557822269217,False
1.7734375,36.71494909783941,-84.44919241304015,-35.25010534783941,11.451729141127796,False
1.77734375,38.815768309966366,-83.21141640810764,-36.98860022001682,-13.473453221959636,False
1.78125,43.45533219096155,-68.36481198892304,-34.66881827951923,-19.040929879153857,False
1.78515625,57.63038671731335,-59.072603237633324,-27.33432198763332,14.246893963773447,False
1.7890625,61.122732009317154,-56.549068524350254,-24.84661372134363,36.6131323173348,False
1.79296875,71.74089100329451,-45.49521265897947,-18.096783538921237,35.40758839641434,False
1.796875,68.47316961275591,-52.26237577770627,-20.54037655541253,16.398037153671694,False
1.80078125,46.34577423915042,-53.13053110058845,-22.286923328889298,4.701615081371828,False
1.8046875,44.93914366572173,-48.66782868525896,-14.049181878256206,19.733475951961385,False
1.80859375,64.94260345791957,-42.48046875,-9.852003551397573,46.57387227802808,False
1.8125,80.46099209268114,-42.62889260182972,-12.645837882723427,51.90979804539046,False
1.81640625,63.160589399825305,-46.577613552776754,-10.970255608679661,27.892819482116586,False
1.8203125,55.651432730615994,-38.44208502528348,-4.16704575927061,18.24795170280417,False
1.82421875,67.09778272769626,-24.60855607966457,0.6956273293733986,45.66538642120894,False
1.828125,82.0057724784533,-28.80142819706499,-5.360743506871652,72.22024316474493,False
1.83203125,85.43664883734293,-39.535697354811525,-9.73042924456022,70.77061345962305,False
1.8359375,80.65942930535124,-33.63160571441706,3.992628551397573,58.99897495057926,False
1.83984375,94.26536641893962,-25.00526739197058,16.48780479045357,46.92375330409133,False
1.84375,96.29807747563443,-34.55381497486821,6.070801918597524,51.359321843968374,False
1.84765625,71.41341485021452,-58.651212457860865,-11.92944567882317,56.77455442652467,False
1.8515625,53.14116131627337,-61.73299590101134,-22.705422301179897,38.2591927961232,False
1.85546875,49.74985537728332,-70.23025181592497,-32.60517950456663,4.877604645549835,False
1.859375,47.93057337955869,-66.90874722264788,-28.53995675950046,-11.890987731765247,False
1.86328125,50.024943827004414,-52.80584831279882,-20.811574079394997,-1.6194631528135344,False
1.8671875,43.108485529037694,-54.62761334469813,-28.96829149747165,20.51858671084891,False
1.87109375,46.93313687865497,-52.655222039473685,-32.12639345760234,31.659128289473685,False
1.875,59.07604557730616,-40.045646739963225,-19.046560153616305,19.00525901202881,False
1.87890625,54.11931001953724,-45.55931921353049,-22.033919610021453,-11.724077248697517,False
1.8828125,39.569695975712534,-72.78700701999693,-33.19839631857187,-12.425777658596385,False
1.88671875,41.714525053251805,-76.02919774618425,-32.71484375,15.347337553251808,False
1.890625,56.640625,-65.7313055470426,-32.67928885419859,30.140106640744712,False
1.89453125,55.917675452038004,-55.72978518617836,-30.871256560297272,22.259130545127185,False
1.8984375,24.85670299570947,-58.54167464756359,-35.22792843050873,-7.474010209163347,False
1.90234375,41.75478116954763,-55.99197774917249,-19.793258953199707,5.787901687201177,False
1.90625,63.96221005401471,-35.88503557883849,-13.262215560833589,34.0937930968434,False
1.91015625,37.14786287542139,-43.11551869445296,-28.67388618602513,31.449622184339564,False
1.9140625,37.93676539322055,-58.700301504842464,-25.284073495157532,23.519029859323282,False
1.91796875,34.08504734931889,-61.1696765732341,-23.150999234851152,3.525109084170043,False
1.921875,22.041341844161813,-64.0133276988201,-27.400314606956787,-4.253119732608029,False
1.92578125,30.46880985672694,-69.80590259155684,-34.2529521337726,12.835736381397487,False
1.9296875,45.939289716135455,-68.13060258964144,-39.965528510956176,23.61530440737052,False
1.93359375,48.0941917426448,-54.503260994483604,-35.43982124387067,5.002615738967208,False
1.9375,36.6825965369292,-45.529420778424765,-25.817403463070793,-12.059424561369905,False
1.94140625,39.4216403616304,-31.522946674839105,-23.55242491572173,-5.5000849965522525,False
1.9453125,51.36811527926754,-41.020263896337724,-27.36018067154459,23.0031496609715,False
1.94921875,53.99576573513638,-54.69489230577689,-27.813535521376036,37.85288533366534,False
1.953125,48.396322033606104,-42.35709647388746,-27.46712227611254,18.52370974508091,False
1.95703125,38.32500526739197,-39.732027419169476,-30.001568246245785,-4.507810105730923,False
1.9609375,33.92002901854122,-43.506472906451116,-24.389341671774442,-5.550454432270916,False
1.96484375,47.879111890639756,-44.27884455780807,-23.745240525776087,20.050596357855287,False
1.96875,56.99856822709163,-41.65429627643273,-20.257162455945448,46.5942719506589,False
1.97265625,50.20087917560527,-49.15458358872203,-8.518420309148024,32.29629558688324,False
1.9765625,27.17387660894882,-62.02587486592093,-17.387122184339564,-3.460437097762795,False
1.98046875,21.971010190009196,-62.17557653999387,-27.47351938400245,-4.104196195985289,False
1.984375,36.53510956175299,-52.60637138944223,-31.140282619521912,19.231278012948206,False
1.98828125,46.69184964145624,-49.580956767896545,-28.36101257967639,36.6007437101618,False
1.9921875,41.898421937250994,-55.68644891587496,-29.498352742874655,34.65530905225253,False
1.99609375,30.27418570908673,-56.29905258772602,-33.593600358182655,2.9037396088722036,False
2.0,39.76291349026969,-58.76383288959546,-31.685248189932576,-14.89352086844928,False
2.00390625,42.57100204949433,-52.53669815928593,-30.53306605309531,8.176877825237511,False
2.0078125,28.841305451271836,-41.84101933611707,-26.978055326769844,37.781536115154765,False
2.01171875,36.406821318468594,-46.752558610553486,-29.053476528893032,38.59889186621738,False
2.015625,33.18678411354582,-44.90553411354582,-32.70478781987435,9.721630305700275,False
2.01953125,26.988342539531747,-38.4180920473002,-28.738835010495833,-7.17141389203849,False
2.0234375,46.38671875,-15.598214114695066,-18.511830083512105,15.3402914783175,False
2.02734375,46.423829920701806,-13.487905349754827,-14.707815373122893,33.64687284515783,False
2.03125,48.9704256462215,-33.1367180317633,-18.5926343389924,30.6383915232747,False
2.03515625,55.84123841173766,-29.5662302712228,-20.484767660128718,24.033822642123813,False
2.0390625,43.226896240653346,-20.439879278775436,-19.558423288489827,8.599687423388085,False
2.04296875,52.3866972015783,-18.19138709584738,-20.351586442690774,19.9490798823935,False
2.046875,56.53449902313822,-22.096469889672083,-15.55424934875881,47.221779947517625,False
2.05078125,53.43441637043393,-25.489382546273596,-13.810135564783035,42.62746786130179,False
2.0546875,46.39566733067729,-27.614152763944222,-17.00269235557769,22.164856200199203,False
2.05859375,36.110432825708784,-23.083496795747312,-15.181478098582437,5.37109375,False
2.0625,35.65037186763183,-25.84386254420898,-16.101600014736327,5.37109375,False
2.06640625,44.84227043239765,-40.40165232746997,-18.533738929578327,33.4484028331086,False
2.0703125,60.96405081668301,-34.20769873130669,-8.832156702010296,51.67808822628095,False
2.07421875,67.3816452938247,-25.392241131627337,-3.9071478509040762,40.52940880707938,False
2.078125,75.2069838463778,-15.574424165696248,2.476420289133366,33.23035814154817,False
2.08203125,78.06529291487895,-3.041140725559301,11.190664026585964,40.20624233833895,False
2.0859375,70.91563926896912,-16.813143061258888,6.305340137748223,60.66173301896911,False
2.08984375,80.06196467424614,-33.667165761369205,2.889286685615347,69.43637093190733,False
2.09375,78.97005727091633,-32.08494148406375,0.5085128237051793,46.022550423306775,False
2.09765625,72.6686455683838,-25.42716529212123,1.4770238473737436,28.90603452898995,False
2.1015625,68.99477506741849,-26.926544256787814,2.052630709502942,33.08443638529664,False
2.10546875,58.10795421679778,-29.204856240600417,5.478448969299514,45.88558650689785,False
2.109375,72.91591349490976,-26.428363875954417,8.717690061386511,60.230797057568836,False
2.11328125,87.62757080856215,-21.09254695352721,9.748088053904143,55.27223445352721,False
2.1171875,50.329898087000494,-26.774667121230692,4.468599409705197,23.875175489167074,False
2.12109375,40.13303180160578,-31.69129659919711,0.04228618572260423,13.282261516686074,False
2.125,63.348716367369455,-29.31019230548235,0.9712355778070606,44.263132239825936,False
2.12890625,71.76665997908495,-39.049930857747,3.414826464436749,63.45205267260664,False
2.1328125,76.62358603134959,-38.081717859386494,1.9474988125153223,54.62420539079738,False
2.13671875,63.923545139740135,-36.679600114534814,0.010324652564966903,32.62536342777029,False
2.140625,58.171187408065705,-44.77948457419098,1.5031796338716596,20.320741766134468,False
2.14453125,63.97986778846154,-32.18149038461539,4.8076923076923075,47.13040865384615,False
2.1484375,64.86479433531503,-29.718240530767346,-0.09576489335621476,63.22757377727384,False
2.15234375,61.02414985221925,-50.62716043106954,-4.706710135508046,50.274955702085634,False
2.15625,60.55938484902399,-44.12045038633591,2.729529915616104,28.8957655551037,False
2.16015625,59.1155190361455,-33.44870209840035,1.9754501907636675,16.392346134545846,False
2.1640625,41.353345881726526,-42.78619817203972,-10.984023782253615,19.4673568602139,False
2.16796875,47.75185341591592,-54.99772931413556,-10.268150404869155,40.70225359287859,False
2.171875,71.04486202194165,-58.074943690242705,-10.73709999004045,47.297143620525866,False
2.17578125,68.37769003585437,-58.59069749402427,-11.712644988048542,28.924588977077715,False
2.1796875,37.66175887549032,-48.84847503983819,-7.820640015935279,15.165208805773474,False
2.18359375,28.352872563741112,-47.395841313741116,-6.842042511951458,21.055108865530766,False
2.1875,44.02773016134469,-62.957756190242705,-9.765625,49.32861627390292,False
2.19140625,57.235743959150525,-57.861268271941654,-9.699487370525864,51.17286856076857,False
2.1953125,67.33295795795796,-34.62523628539253,-3.432212904869155,41.76428102209352,False
2.19921875,63.64388301454741,-32.10261505781104,-4.611396611792288,26.24574289739632,False
2.203125,46.40250370420259,-51.67391049117544,-16.260977226890148,19.72197775294152,False
2.20703125,67.31760259293026,-59.38581544764342,-9.461840802356583,45.710229558025866,False
2.2109375,67.39307729950661,-65.30650990592056,-6.887261497533096,48.776801002466904,False
2.21484375,51.06206333884905,-71.18995190981798,-11.156135807363485,30.10726566809156,False
2.21875,47.40685427647708,-67.43261024454523,-10.266355686136308,16.28757335590831,False
2.22265625,36.22917592393969,-69.80327017957833,-7.349357034506006,23.85874582465065,False
2.2265625,61.89594010464546,-63.99105778291046,1.9116194478917699,53.09158608544769,False
2.23046875,61.03545551529174,-59.08352757645869,1.464993382645869,69.81913124004045,False
2.234375,48.83566602316602,-67.3507631515444,-1.4516469594594594,53.5789695945946,False
2.23828125,50.796811795170385,-59.09370259637779,1.9686867951703848,19.54292134637779,False
2.2421875,52.76992553778268,-60.60612589630447,3.9003249103695534,21.351599127826805,False
2.24609375,55.89157603519517,-65.44485506901302,3.3193795514154263,50.39914173309108,False
2.25,69.95792230175243,-66.38261148678349,-2.7760371640927213,56.963436657484465,False
2.25390625,78.43776215639556,-61.626684025649666,-1.973774305129934,41.83429513207894,False
2.2578125,53.65524764241282,-67.28298371713551,-3.8729737390451673,10.306364240516025,False
2.26171875,36.35277248942755,-79.43272947183746,-6.79823007324099,3.9816648535180192,False
2.265625,53.07288315100815,-68.94179934079487,0.4240927790034936,32.46236909741374,False
2.26953125,63.42942821655124,-75.16613413405553,-4.372086353119637,42.92161571655124,False
2.2734375,54.69180915609487,-90.81265177805356,-9.27494977439174,34.18399665609487,False
2.27734375,44.400046110796154,-83.00428116955749,-5.395813063097573,17.990482645486026,False
2.28125,35.201855235337376,-82.06545392650304,-12.245035612781148,-2.8498783381595882,False
2.28515625,41.108516946555525,-86.43158699665972,-17.06662076336112,7.742232509499877,False
2.2890625,48.94572905175584,-86.73373628730772,-15.13671875,42.43342712929766,False
2.29296875,55.66153789659224,-75.70247089820799,-15.25942021335194,38.70130958064042,False
2.296875,31.219704759106932,-76.64254140349588,-21.369878497723267,-3.6018631573149307,False
2.30078125,23.064129579196543,-86.28214271350433,-25.333169585401727,-7.762226512226512,False
2.3046875,34.0606171381841,-86.42578125,-20.55958222252865,24.072382331310905,False
2.30859375,42.91218885986149,-82.544669534506,-17.596978713379507,49.156149686274205,False
2.3125,59.531649793926576,-80.5709548036557,-16.603836776827848,36.65065934876203,False
2.31640625,55.65104525763008,-84.95052370610406,-15.127172772262059,2.431860272262058,False
2.3203125,48.31973312239519,-79.08432481919588,-9.762752053199314,-2.786040159965678,False
2.32421875,44.931690299993875,-76.33382744989888,-9.39021969992952,21.626696849911134,False
2.328125,46.02977698680824,-92.34045708655084,-20.45251166344916,35.66526906370656,False
2.33203125,55.12227261583722,-96.10222519306203,-16.592644394306202,36.69022403239152,False
2.3359375,51.69847182961022,-91.14430717388306,-16.233758072485752,13.820630659358338,False
2.33984375,27.84452169610681,-83.85947053893189,-21.421922769465944,-0.5893586706888403,False
2.34375,28.317139407455546,-79.13329342544455,-19.058834212722278,14.061790381121876,False
2.34765625,43.41714163142735,-82.51052391677392,-15.634007333226084,33.63993577442238,False
2.3515625,55.6540078024453,-78.61328125,-12.20272209390513,34.652168510985476,False
2.35546875,48.71102966806092,-78.64051272254397,-9.299128928035177,23.84680997962248,False
2.359375,28.04480887242584,-83.4582666171243,-13.131581442295905,9.916933531502819,False
2.36328125,50.16988847904027,-79.46134710922658,-7.7516331701599555,25.897848582000368,False
2.3671875,75.84746138038548,-70.40894729231783,-3.672238884292456,62.002950814334746,False
2.37109375,57.70687181122449,-75.62972929881413,-17.588897890237178,60.844745415057915,False
2.375,39.770727759009006,-73.19107612076363,-18.028072715572716,30.084492975117975,False
2.37890625,29.59297985804682,-71.64384968514433,-16.705042095667096,4.986292095667095,False
2.3828125,23.63895304743519,-82.95744923814121,-20.0698945118588,9.073017931834896,False
2.38671875,28.204979599406528,-81.0698140764095,-21.429780229970326,31.19847691023739,False
2.390625,0.0,-68.7313090354385,-20.00983564878654,42.3301869311914,False
2.39453125,0.0,-57.19058104660783,-19.221140384644848,26.870909892673286,False
2.3984375,0.0,-61.61201459750567,-31.64970415249433,-6.418517928004535,False
2.40234375,0.0,-66.41711266432249,-26.790292764065086,-9.699910369553226,False
2.40625,0.0,-67.25482457904333,-24.04158982004964,15.09880416130416,False
2.41015625,0.0,-80.28382735413986,-28.007988457207208,31.66391838266838,False
2.4140625,0.0,-70.76585913081449,-17.77948827334988,28.402366013973158,False
2.41796875,0.0,-56.43558098915242,-10.162157134813384,3.09696654562726,False
2.421875,0.0,-63.12147606790464,-19.95686893845376,-3.1491552138873566,False
2.42578125,0.0,-55.084211682984005,-18.37154836596801,36.743366054191945,False
2.4296875,0.0,-53.29734828897775,-14.748026885303672,57.68777985574861,False
2.43359375,2.5802117249178815,-54.510426646329165,-16.37389675956607,30.19521345372558,False
2.4375,49.60378113654699,-51.28331894160952,-12.224758282069383,2.0732748840258175,False
2.44140625,36.13532617438867,-51.75772272591469,-20.994477816464425,4.394082379573451,False
2.4453125,47.9175464527027,-43.93965673262548,-12.680230453667953,38.657170004826256,False
2.44921875,64.98030835363424,-42.60495548162959,-8.862976496905068,59.94966785982411,False
2.453125,69.5530411629742,-58.217476883771525,-18.036930425323284,46.02711368894405,False
2.45703125,46.97619911677289,-67.2485186986763,-15.625,16.490967604792253,False
2.4609375,23.42762485061592,-59.1709075944567,-15.753376941993013,10.10138007905865,False
2.46484375,23.115540205383954,-63.93988655428387,-22.067697081647974,26.55726916329595,False
2.46875,29.993432127918734,-82.40845078177668,-25.80948095736042,34.37407831939082,False
2.47265625,37.31593251126057,-78.34316758142849,-23.453389039327735,40.30061823025187,False
2.4765625,43.58208655083655,-70.43755530083655,-23.83645603511675,18.524882503677148,False
2.48046875,46.55577616413761,-73.84313598618672,-21.127595418742036,5.821706134889378,False
2.484375,38.67902416599097,-76.62316610317966,-12.324166714931078,28.988623776497164,False
2.48828125,30.350254192330084,-81.01401983935466,-19.463470565591102,43.809753631182204,False
2.4921875,38.04524240868979,-67.45402890979287,-23.902890261138005,43.45957469320689,False
2.49609375,40.03690792195256,-72.26023855488141,-24.41352385548814,19.06990097559294,False
2.5,27.817667396350434,-100.09478347927009,-35.153377229270085,-8.74884370978121,False
2.50390625,23.0524526213384,-99.0694768143308,-34.13839395146464,5.085839113632185,False
2.5078125,37.71140001608752,-91.70479671316726,-28.23365058298094,33.750986317950606,False
2.51171875,47.71056597775463,-83.55546070673489,-20.50039163040814,38.787927825101114,False
2.515625,38.29232812212723,-87.46811822983697,-20.113494792624255,20.676617705077525,False
2.51953125,23.686368437078688,-90.85451433041733,-25.039151071669323,4.428733080417331,False
2.5234375,14.019659806490164,-92.1513928628884,-30.520944653199116,6.514815596846847,False
2.52734375,27.00910860387723,-87.46070021398884,-21.87053243801953,30.018582105955357,False
2.53125,47.4706560083997,-89.32084088712725,-18.61528626002732,37.45914479850898,False
2.53515625,47.37040332743458,-100.90328889157014,-29.140189296439296,13.05853844916345,False
2.5390625,10.645057892358132,-101.5573532678637,-27.847471446408875,-13.877085982503985,False
2.54296875,-7.210033111441351,-105.44337541365364,-27.346921823293297,-9.794171409639663,False
2.546875,20.439588376332885,-94.26581028235691,-21.498737973403603,17.511097790783186,False
2.55078125,38.08270583098419,-86.91487041725395,-18.549839996476283,29.755263311603752,False
2.5546875,36.068807499770195,-87.38842961951526,-15.599954565127467,11.590739999540386,False
2.55859375,25.07362220783797,-84.98948390963966,-11.339896653618704,-10.732672030120114,False
2.5625,42.6151298779647,-87.85695971800882,-22.535001120380585,-9.583832477247656,False
2.56640625,51.76553259820444,-85.37058147061528,-27.67475669123054,3.776205244974874,False
2.5703125,25.283501156698126,-81.20466088062263,-19.150092593301874,23.29823900370756,False
2.57421875,20.56827017141689,-87.79389272573297,-24.010421989983648,16.545724707247984,False
2.578125,22.904445851828058,-84.0560116370751,-27.28106794255928,-4.479856416452517,False
2.58203125,31.604705597346488,-72.44372587020469,-16.764821631020958,5.215255488570902,False
2.5859375,50.08602224154308,-63.574589793479596,-11.290374318237529,34.34121110506803,False
2.58984375,66.77752569214623,-63.4765625,-11.23046875,50.18284587201998,False
2.59375,56.67141562423397,-61.52930238080647,-2.9546132434275023,37.148962945443685,False
2.59765625,59.56369954766209,-58.10699481592413,0.9760538113586223,13.171893911248315,False
2.6015625,53.11586155817196,-59.56782890251563,0.5006992374218654,2.045018106921804,False
2.60546875,32.489614373314744,-58.94827606017894,2.9341460063273685,20.224622541058952,False
2.609375,60.95795526795563,-44.25989154040017,3.475869486533276,42.281032879718715,False
2.61328125,54.75536504933203,-31.325674916120235,7.8125,26.797208939131632,False
2.6171875,30.792868448569063,-35.41610012716019,7.719050904292805,-4.363381551430935,False
2.62109375,32.297482196237034,-24.925983648745678,3.6543677374567727,-2.776028158153098,False
2.625,35.110916344294004,-25.863795031431334,13.032481564313347,3.319745829303675,False
2.62890625,35.63860652347101,-33.596610625536215,21.866011172478245,13.065099219420272,False
2.6328125,37.58185697925604,-8.990503201985536,26.815970573140092,18.5112395054541,False
2.63671875,12.309726509835766,-12.19320688809903,35.12267654966908,-28.130721251072437,False
2.640625,-45.8984375,-26.3671875,44.921875,-75.68359375,False
2.64453125,-64.91573243504106,-6.7707655081811495,46.91252326801691,-72.67688480512318,False
2.6484375,-58.58190127305595,9.316839506480177,56.16814205259207,-53.88076925286476,False
2.65234375,-57.46491005906055,14.201419875674102,58.040625909654985,-75.43798690479838,False
2.65625,-85.4095111131113,17.81421637532173,52.82881155012869,-135.9621803759652,False
2.66015625,-112.96032731301324,32.20687325729256,58.62328386406116,-179.06139405104793,False
2.6640625,-121.07011093960656,31.60458590590146,60.25952576334416,-171.68956802878722,False
2.66796875,-119.62724025126478,46.29569202600153,68.42558408766692,-144.39883182466616,False
2.671875,-102.21445126367728,60.414169583504915,70.77866368058415,-139.6926726388317,False
2.67578125,-112.24939005239612,63.94641126746538,69.34383713537198,-159.56000706658293,False
2.6796875,-112.79231044705233,62.98959785589533,67.38544571179067,-185.0243619967214,False
2.68359375,-118.6971056073442,61.493157420031864,58.084404346543906,-168.36092490923156,False
2.6875,-134.9962404917116,50.22447532058157,50.244044871843975,-132.70486746805673,False
2.69140625,-96.39167996039649,39.991933993519424,42.9111484920793,-116.58925223487866,False
2.6953125,-69.84585165298118,35.70942995894356,37.52554657339604,-106.40925766169802,False
2.69921875,-70.99605784256649,40.07568808217919,32.56834142128324,-103.81162194355926,False
2.703125,-54.99618423673244,41.335440541120235,24.679717662244148,-92.82610173581321,False
2.70703125,-25.305584228306166,13.026319191230543,14.940125551538179,-52.13484055184459,False
2.7109375,13.485197708575893,7.565501916860715,7.58629703106808,-12.634991708284822,False
2.71484375,22.752163109891246,15.103876143315208,0.1926977898368698,-11.201983993587092,False
2.71875,17.116295559351638,14.139808704344896,-8.314007154675819,-24.384558558800098,False
2.72265625,29.791140455527298,4.355633914072554,-14.651429602763649,-9.987609104035174,False
2.7265625,31.04808053223434,-1.938313183677534,-15.131781477892511,33.445051333266946,False
2.73046875,59.47600142088976,-0.6334281550646486,-14.752113860760463,57.039053404007596,False
2.734375,86.79891932988112,-10.95475950637333,-22.247228424898886,50.40924898884667,False
2.73828125,80.37144083392059,-22.56925162004412,-37.293509004075005,30.457571504075005,False
2.7421875,72.09677029392388,-26.985992270805244,-45.28238563243045,39.4941671965008,False
2.74609375,84.55970185339808,-13.303075735001226,-40.37982404400049,74.4828192505975,False
2.75,103.66292621905447,-1.71573156673203,-35.81178979448802,98.06413344874073,False
2.75390625,120.81648476758794,-8.826406230849368,-40.63937494254811,80.74289128569677,False
2.7578125,100.90184370978614,-10.013371108830198,-43.5809043044151,48.4637168044151,False
2.76171875,86.46270813546242,-15.887604067731212,-46.69309016235308,52.254296503992045,False
2.765625,97.70008430548747,-21.41424011122005,-53.24895683329248,73.56656136060727,False
2.76953125,100.3654658582547,-17.417439235047187,-54.58037615669812,91.10505844772644,False
2.7734375,112.57110433007537,-10.038235482796127,-49.63976279566763,81.3715511826705,False
2.77734375,122.00256714211301,-2.304299699718103,-43.66188315816889,56.450405370986026,False
2.78125,104.16996795338255,-14.120241599132912,-50.57527364575035,50.92400322285373,False
2.78515625,109.5360448392879,-26.614290488264494,-58.51954130408138,69.4598779913286,False
2.7890625,124.76553882744041,-20.240976775537717,-56.59957335008273,84.46831770099271,False
2.79296875,96.58369496108591,-14.56465348847898,-55.64159043119561,71.62419854608407,False
2.796875,84.79044748452723,-22.729209433788835,-54.80909905631473,37.96371010210491,False
2.80078125,91.29533873475704,-17.894928840615233,-47.42931695799375,37.6238072281543,False
2.8046875,100.28946179066062,-5.9226020058371125,-39.869040802334844,73.45577688365609,False
2.80859375,112.15574087129298,0.9765625,-37.28060586992269,93.17297619648627,False
2.8125,125.45716338125804,0.9104370289233409,-40.044897100389115,99.50629705979226,False
2.81640625,117.53574225931487,-15.726139271050373,-41.507796221963474,73.48151054433754,False
2.8203125,100.16803050700103,-28.326177021416754,-41.945271328665974,42.6564043925026,False
2.82421875,105.91798430893436,-28.82421252642625,-37.94536851216373,57.48032871959066,False
2.828125,103.40832819489552,-29.863190290075984,-29.335892020037992,78.80893484971506,False
2.83203125,98.16792949361174,-33.72650361541761,-31.355292096252835,63.879868031512345,False
2.8359375,98.24782496706091,-35.45643614413531,-35.699110548933696,39.954261111196224,False
2.83984375,67.76176231501624,-46.08586281711502,-37.45708726216373,20.347525554951282,False
2.84375,65.24348894501807,-51.65243064066426,-33.203125,31.520456168806298,False
2.84765625,85.84052594943012,-49.04271861020896,-33.49575265028494,64.86337220992401,False
2.8515625,71.49844985140021,-54.52101940223053,-40.312809981846314,61.76543877152399,False
2.85546875,64.89819100887368,-61.169106505915785,-35.57809418860921,34.33685957618026,False
2.859375,53.762591890441946,-53.745373760294626,-34.186144298805246,17.16947760193133,False
2.86328125,43.46394300738403,-52.247081143912006,-44.42668199261597,23.433221293047982,False
2.8671875,56.20566302124824,-54.663263967614434,-44.404510511137325,45.96306691969483,False
2.87109375,72.33683704577486,-47.388205466021205,-35.65165245457749,65.2979452153165,False
2.875,81.80552576751026,-51.00146876340462,-36.73120313170231,47.02194216672284,False
2.87890625,61.646652291807094,-70.17094361825173,-46.37181807823703,17.05259207059256,False
2.8828125,38.311422364268644,-60.90362341250996,-45.41955145267786,14.855131958912924,False
2.88671875,49.96344847263926,-54.233238958422696,-45.932457708422696,25.70814694527851,False
2.890625,56.57420031864697,-55.25222947561125,-47.25700175983516,38.876510892211535,False
2.89453125,54.09261012853116,-40.070449657990686,-43.21335440092837,31.556451165053005,False
2.8984375,50.36905792327961,-25.9132555897267,-35.40408587191311,10.999807547950242,False
2.90234375,40.11825812796075,-26.714700999605235,-28.773401812401307,19.24533615955617,False
2.90625,67.18796261702008,-23.105407067730656,-27.871078329432663,49.473172839005755,False
2.91015625,76.80107565487133,-7.472767549402574,-22.204230813419116,64.85075109145221,False
2.9140625,73.38102106823335,-5.423156338087505,-22.443583303970833,52.24372998881672,False
2.91796875,70.40512982536765,-21.44775390625,-30.499267578125,27.169979319852942,False
2.921875,71.26207373307187,-17.224787584640602,-24.589489485032786,25.41761376692812,False
2.92578125,73.19598943332925,-11.369062950012257,-26.32098943332925,45.41335779995711,False
2.9296875,78.02866019454657,-13.623705097273284,-27.80312930836397,63.60838646982231,False
2.93359375,88.21742246384582,-8.865959541025799,-21.584341153333536,50.988872010769654,False
2.9375,72.45618034811581,-5.894021426930147,-24.379416073069855,22.31334611481311,False
2.94140625,73.23452771692506,-1.0148614153747166,-22.960708424612413,23.910461683850112,False
2.9453125,83.94290445569581,3.8873997525890065,-17.11246404689319,48.24559251294503,False
2.94921875,93.74980057361864,-6.347969634313554,-21.97265625,63.47573630499154,False
2.953125,90.48239874153977,-11.482458227580372,-21.97265625,49.93935728637902,False
2.95703125,69.75474212382805,-1.8977710988724787,-7.007355067329492,24.997791828160427,False
2.9609375,52.881876627604164,4.17013729319853,-4.938910989200368,14.064564424402572,False
2.96484375,38.57185498881672,-4.092927291424106,-18.085525786659723,25.460011863089036,False
2.96875,51.342294730392155,-9.60238587622549,-19.975011488970587,46.71032475490196,False
2.97265625,72.19812729779412,-8.814912683823529,-16.692038143382355,44.986500459558826,False
2.9765625,79.43610951000367,-7.357161801427783,-17.55616296571481,22.488764055701942,False
2.98046875,67.13023466222427,-4.928140079273897,-19.015772202435663,12.388341567095587,False
2.984375,62.082930795774864,3.7780683176052445,-11.344408023239781,36.7461935665482,False
2.98828125,91.47931267233456,10.669304342830882,-6.882790958180147,68.02619485294117,False
2.9921875,103.92162846583946,2.497355143229166,-12.170829024969363,58.65957222732843,False
2.99609375,82.0918400809639,-0.9671373762945032,-15.128640072538145,31.325400989643974,False
3.0,69.39000949053697,6.046348894146127,-13.732136471170774,22.354312234081572,False
3.00390625,75.88599709903492,6.816878973268995,-15.079543169806986,34.641669778262866,False
3.0078125,77.5852876551011,3.5379746380974266,-14.665581198299632,56.82857737821691,False
3.01171875,80.94808541092218,8.148492551317403,-11.33707083907782,61.87465892118566,False
3.015625,68.70554007735907,6.400912415747549,-19.77987850413603,48.23766970166973,False
3.01953125,70.26702003799252,0.6247211360224281,-26.219377623475705,28.298200860576628,False
3.0234375,72.7066339231005,5.276549096200981,-24.451880361519606,10.594267003676471,False
3.02734375,35.2560604319853,-0.8785472196691169,-24.4140625,1.119815602022058,False
3.03125,26.462809244791664,-1.9418753829656863,-19.104841643688726,-15.91641295189951,False
3.03515625,16.675168227985786,6.769692344812794,-13.71235815039218,-50.03534870204976,False
3.0390625,-3.345594219132966,-5.326962938495711,-20.969615263097424,-78.99741378484988,False
3.04296875,-6.344636487292378,-24.4140625,-23.92520605710331,-87.88472927280893,False
3.046875,3.550521953042173,-24.4140625,-22.040413973230063,-68.56561041310815,False
3.05078125,3.90625,-14.490015366498161,-20.082361557904413,-47.550425809972424,False
3.0546875,3.90625,-6.568340226715686,-23.815439261642158,-53.51783902037377,False
3.05859375,8.193879968979779,-14.92291618795956,-32.9774445178462,-78.48391065410539,False
3.0625,16.910508099724264,-12.266809800091911,-26.984988941865808,-65.23033590877758,False
3.06640625,15.168911803002452,-11.246565276501226,-27.33570173674939,-28.443699257046568,False
3.0703125,9.833092783011642,-33.89141606349571,-39.87959319469975,-17.224779316023284,False
3.07421875,29.613409551366505,-28.854672132560207,-42.94361633678534,-25.803505260356026,False
3.078125,35.13123755361519,-8.396283318014703,-41.51072782628677,-47.26323146446079,False
3.08203125,30.277027803308822,-8.30078125,-38.088450712316174,-49.80289234834559,False
3.0859375,35.68964939491421,-12.19614066329657,-29.29376340379902,-15.086933210784315,False
3.08984375,49.824785894346206,-8.782363035217932,-28.347110359128276,0.39448874305103787,False
3.09375,52.6635108337276,-7.8361213887574666,-32.13207694497014,-12.85289430739547,False
3.09765625,31.704173368566174,-14.503927791819851,-33.660439883961395,-28.478285845588236,False
3.1015625,35.08899165134804,-9.849697935814952,-31.292036467907476,-31.207963532092524,False
3.10546875,50.0917023303462,-3.98415958180147,-29.804633645450366,-9.569504681755514,False
3.109375,61.41815185546875,-6.8084716796875,-24.9481201171875,16.8426513671875,False
3.11328125,56.18163464116115,-4.89346373314951,-16.646830240885414,16.118606866574755,False
3.1171875,52.73961085899204,-9.758145201439952,-22.451961741727942,-10.70104860791973,False
3.12109375,57.11140352136948,1.9776288200827206,-16.587560317095587,-13.129918715533089,False
3.125,49.86940271714155,12.170051125919118,-10.723697437959558,9.342058967141543,False
3.12890625,59.98364616842831,6.442589853324142,-7.797510483685662,19.411333869485293,False
3.1328125,52.24367029526655,15.459127987132353,-6.2370749080882355,7.245770622702206,False
3.13671875,17.69000224566457,3.9661324552351824,1.6872642980163914,-32.7483953241923,False
3.140625,-3.21509337139209,7.291943121585105,14.040275344458962,-61.730459702384486,False
3.14453125,-19.922892252604168,23.829142252604168,16.101911956188726,-66.38066908892463,False
3.1484375,-54.13429409849877,9.792522355621937,23.91094132965686,-82.97627766927084,False
3.15234375,-82.54421307288156,22.01510898535629,27.854738527051037,-122.16706524569572,False
3.15625,-95.05974264705883,42.91704963235294,39.128561580882355,-170.17176011029412,False
3.16015625,-151.76930147058823,34.2562806372549,50.39828431372549,-212.55074295343138,False
3.1640625,-192.51014859068627,42.38759957107843,61.1960018382353,-227.51895680147058,False
3.16796875,-202.30641084558823,70.64568014705883,72.69358915441177,-226.78079044117646,False
3.171875,-238.8077955548067,61.9169405501348,69.20956656684639,-267.28221238167083,False
3.17578125,-262.8070606904871,58.1510955212163,63.92355526194853,-321.2313184551164,False
3.1796875,-267.5771077473958,78.64194383808211,81.28398820465686,-356.20168050130206,False
3.18359375,-282.9714671558149,79.85024725215206,88.60678399784794,-346.87314944537525,False
3.1875,-261.24866398983187,87.70743137601826,80.74959987398174,-308.511603428852,False
3.19140625,-235.36909407358618,98.42285246002083,89.66242087456345,-294.2125343690644,False
3.1953125,-248.321533203125,106.80389404296875,96.5728759765625,-304.5196533203125,False
3.19921875,-240.33202526652778,124.3049299502941,90.88924209990196,-311.92555675012255,False
3.203125,-229.09198835784315,118.21384803921569,87.91360294117646,-290.6958486519608,False
3.20703125,-205.65831801470588,102.11397058823529,80.10876225490196,-254.53622855392157,False
3.2109375,-160.15903231457938,107.90979724166718,66.89533901874886,-215.33442463888548,False
3.21484375,-135.7233395625268,108.3305849250965,62.00794916250536,-198.21768518128485,False
3.21875,-130.7952880859375,90.63182157628677,60.90321260340073,-191.72865923713235,False
3.22265625,-122.34259040308498,66.30961692374855,43.80320503492433,-170.01793964639114,False
3.2265625,-103.27722886029412,58.12060786228554,31.821546367570466,-135.95422482958028,False
3.23046875,-56.0871867022511,58.785679999347295,37.02855193164017,-87.05211045377408,False
3.234375,-2.2463883731724295,43.468901164350775,32.851248613004756,-68.95046273968728,False
3.23828125,2.8310439165900734,17.836716595818014,14.695649988511029,-76.42059326171875,False
3.2421875,7.21436220015624,7.568344416319466,7.019031749739599,-43.810983548802156,False
3.24609375,52.73039599097788,-17.05172903199865,0.6224606143925007,11.9966224496048,False
3.25,73.38576971315871,-14.219007305070466,-19.666424919577207,30.938930137484682,False
3.25390625,50.60602401622143,3.1831773003339237,-27.245920229305803,37.99462971401875,False
3.2578125,56.097053079044116,5.836337220435049,-28.31109738817402,41.47165335860907,False
3.26171875,80.43028225713805,12.657197781998653,-32.20478266114209,55.09955181399731,False
3.265625,114.20001215841555,14.645086755560321,-32.71400606389008,107.81968615012866,False
3.26953125,133.3277068749617,23.00953214991422,-34.19691989997549,140.11194717503523,False
3.2734375,145.57297251240732,50.411441499831504,-42.0158820499663,128.81739543762637,False
3.27734375,156.25,70.06397634209605,-45.92149111462462,114.29008756047448,False
3.28125,156.25,94.31205281679878,-48.253036929499885,117.55425170129983,False
3.28515625,164.74449616291895,103.70933991291894,-58.25008927340543,141.27160392477484,False
3.2890625,177.83169617555603,103.53010500275718,-60.96275623621408,166.72750860662643,False
3.29296875,175.36854000405918,126.82424100851664,-60.083784168019726,161.29655021712824,False
3.296875,158.10041869945164,135.08253960579927,-64.3567312626371,141.55240827576435,False
3.30078125,159.15321063545431,134.29499499303046,-63.01475811454568,133.9214468227284,False
3.3046875,173.62078498391543,145.83022173713235,-63.46965116613052,147.74879006778494,False
3.30859375,185.90950333351205,143.5798180832976,-64.92632790002145,176.9445267504289,False
3.3125,193.312255156317,140.6438479374732,-65.4265461770878,180.1569333125268,False
3.31640625,207.9701166250536,146.46929665002145,-65.91671222083512,150.46727327905765,False
3.3203125,201.1373204479658,127.91335262085657,-66.88699207501072,135.27840856871515,False
3.32421875,174.25410524807208,115.17447019045393,-61.03994863476368,154.36876077145527,False
3.328125,162.10244315775253,103.49017971899282,-61.97469187248058,168.38990933720862,False
3.33203125,163.5040924556553,90.31710248682678,-63.89471745565529,166.5915641179309,False
3.3359375,169.2458323919337,80.8636950669383,-60.18376798871086,153.27014108548804,False
3.33984375,168.95907448609154,67.27986686056308,-60.05859375,134.80029922147847,False
3.34375,165.13408003875375,50.69679328970345,-54.34174505813063,136.1829599806231,False
3.34765625,183.21403885331782,38.81403631632559,-50.8511967901783,161.1014890229612,False
3.3515625,171.5894088712395,27.530224911540348,-59.42437561270755,155.85901000819496,False
3.35546875,153.06849807188593,13.846113710863305,-61.9806046944887,133.587030560704,False
3.359375,143.63710982974388,-8.58951370167269,-64.91537814587035,105.71601698923166,False
3.36328125,128.49494140385676,-28.706791207802354,-73.6857749509864,93.80959173201813,False
3.3671875,131.34406616667178,-36.12383729167943,-72.75510294444274,111.79426740280925,False
3.37109375,151.35115241488955,-43.95764718085419,-76.16940806382917,109.30715925530197,False
3.375,145.24141207885384,-48.6574474393432,-75.22944801213136,83.45825783361238,False
3.37890625,99.20010550058208,-53.55177713911525,-69.05456471915018,56.539444484866124,False
3.3828125,96.70774998468231,-60.82468761488266,-69.32190625765884,57.08681252297653,False
3.38671875,106.20180010109056,-85.3165433827809,-82.19078951147225,69.0315470013632,False
3.390625,108.83526088896207,-118.4407980898842,-93.03530416143312,61.688102655321366,False
3.39453125,96.40998248996692,-133.53685914619203,-90.86234639230133,44.727830996109304,False
3.3984375,68.73112812863795,-136.19785882643527,-77.3310530719625,34.31664917897188,False
3.40234375,71.26123935420624,-146.8706380487562,-76.66479344096562,40.46706026744685,False
3.40625,80.51354551180921,-148.91465267353877,-79.08765177942348,52.664821397117386,False
3.41015625,89.82669710419091,-139.6654903958091,-70.81603910414496,64.91896822919858,False
3.4140625,89.32585056254213,-143.0713426145763,-70.28485635837265,52.204628287558975,False
3.41796875,74.65729650198939,-145.488471209107,-56.615757625994696,31.718939959106986,False
3.421875,66.16923284151193,-142.18755756336574,-52.371725795755964,28.418026313365754,False
3.42578125,69.24756161540347,-145.89509273903252,-57.47831110991974,34.0281859835488,False
3.4296875,84.61724685604436,-144.56347099787084,-38.51555080494455,55.191487864561,False
3.43359375,82.08455947111261,-142.6136646474084,-34.25076679481681,53.746477147408406,False
3.4375,73.36819942482079,-144.50324735003983,-48.13682453778874,27.24050518695239,False
3.44140625,77.59067593131549,-126.6541308934808,-44.47452069994179,29.27129565628638,False
3.4453125,64.54116639926173,-138.59035518586876,-42.00849146282625,40.452345520999266,False
3.44921875,59.58407448609154,-169.3468932376233,-49.78266832225354,54.64759024033454,False
3.453125,70.78806715054834,-161.13789813978067,-50.778198616131604,47.814437329601155,False
3.45703125,58.54884404103609,-166.03689624371975,-47.832654727804666,12.183396534755836,False
3.4609375,49.282420127826114,-170.30394961820662,-43.90282984728264,7.523887217771582,False
3.46484375,45.49306266823937,-158.07876537264096,-39.056578112982905,30.504391093666804,False
3.46875,52.11910538255044,-148.13970130117434,-38.58328934767497,48.96265294067621,False
3.47265625,62.82242956209411,-154.67961426678715,-42.420159045306946,41.14378312247274,False
3.4765625,73.60607236267691,-148.9936338249035,-30.414797031048955,26.054192068500704,False
3.48046875,61.13393732385737,-137.2982137797145,-28.819991566214313,5.530663177000367,False
3.484375,44.9850604665768,-146.93436202783224,-37.56319145004902,9.74839260002451,False
3.48828125,66.40361743352531,-145.01977057422496,-26.368563614293592,46.87045283972552,False
3.4921875,80.10184801380039,-137.1814833889842,-17.10809222215415,61.894928528213455,False
3.49609375,86.19763145449114,-130.34533490211996,-21.976336085411432,30.55196813154831,False
3.5,55.96315795015929,-126.90304640592451,-22.34965173538782,3.241287640914104,False
3.50390625,39.92175652725017,-122.46214017791496,-12.613697939004963,30.66667129388518,False
3.5078125,64.12300714717865,-116.01555918583813,-7.314915020754197,56.08721764527938,False
3.51171875,72.21149729367274,-105.95703125,-6.803460876203638,52.09566806533821,False
3.515625,69.83394142110973,-105.95703125,-5.3769273526658345,24.040508769094743,False
3.51953125,64.45477035404669,-117.67219138662541,-1.466040371124862,2.936119338546135,False
3.5234375,42.01776684371362,-119.64766443538998,-3.9233028958090803,8.36217167491269,False
3.52734375,49.48871969198015,-125.01076959012376,-8.796242226749174,25.921984610495038,False
3.53125,72.63411713628147,-126.38861431399731,-9.662170765424912,31.634827015424914,False
3.53515625,61.74053448757812,-119.56294251049198,-0.44430542366131603,22.24105836830658,False
3.5390625,44.08307350699975,-115.33539973846649,2.34956557866683,7.775763731466732,False
3.54296875,51.45720285598309,-120.83729838092029,-2.44140625,6.2899157431376755,False
3.546875,59.79001213852469,-131.00153358963362,-2.54479431518809,25.44513109223747,False
3.55078125,67.95976880820722,-135.86098934080326,-6.155526957217695,45.23280613358556,False
3.5546875,69.81766724934138,-124.12341519498223,-0.06665179665482171,38.46768955435915,False
3.55859375,41.712508042478746,-127.52996388113759,-2.197844525331097,7.6202203729541385,False
3.5625,34.309812998814415,-142.79802240869526,-8.67520268853739,2.530867530434908,False
3.56640625,54.40354180707021,-140.65880454677736,0.8413443128905769,26.035902941581913,False
3.5703125,64.3550020677613,-138.69149958644775,6.777063740656782,50.535942669403255,False
3.57421875,65.9088145983948,-138.1866451338684,0.527949240289181,47.38464093707879,False
3.578125,63.48254560562431,-141.59318615212595,-0.48588800775027574,18.625288146366866,False
3.58203125,56.112852833389496,-146.96673261250842,-0.011189093039642179,11.261403301344894,False
3.5859375,26.924124887038968,-142.51709732263203,-8.280438690877343,34.30937131440694,False
3.58984375,40.15779723111444,-130.90335082633868,-4.398928832633868,58.976489266787155,False
3.59375,52.922543671884576,-135.79845860839663,-4.957840644528857,46.9631311458461,False
3.59765625,29.655442520064945,-140.07996899315341,-10.7421875,15.975460411944002,False
3.6015625,22.420940438901482,-136.91798741728954,-10.801958725186864,8.111356125934321,False
3.60546875,44.48302595182088,-146.65241045369402,-13.615863182101993,22.909032043184062,False
3.609375,66.78656315342394,-153.622265829195,-11.292578056935007,41.495313044519946,False
3.61328125,48.77852505437446,-153.3315607385737,-9.322336704294816,30.5433952257689,False
3.6171875,41.63541491162235,-150.446985854981,-11.67178262084916,2.976834372319569,False
3.62109375,56.40692489431442,-150.390625,-2.5846417986459986,2.9221487869133687,False
3.625,60.018806097598336,-147.9776385017155,-1.9588089503430952,24.16396868490381,False
3.62890625,71.20099118521014,-140.68243781399337,-13.095522435210146,46.21440530801985,False
3.6328125,59.61769869654454,-149.86482967773557,-15.12882105057591,39.09211637284034,False
3.63671875,45.4136264512621,-148.43785898633746,-12.695910810562431,14.166259017736795,False
3.640625,65.94920056135891,-132.79341389305844,-5.85763989936895,14.726517028397256,False
3.64453125,74.64241370925744,-127.43422652325083,-5.428531563993383,36.739559241361356,False
3.6484375,65.91796875,-126.46484375,-13.205372254472492,52.76704275670874,False
3.65234375,65.97358346583616,-126.52741030531567,-15.095007713122884,55.448555476134906,False
3.65625,69.7079748767359,-130.7286006425779,-12.294214154948069,40.977788758898356,False
3.66015625,63.175911442378386,-118.51251857155987,-7.933119409386104,18.68290545352898,False
3.6640625,71.56896494784966,-104.33962765346443,-8.765909299761073,25.21697599820805,False
3.66796875,68.90599152983702,-110.70372809704693,-15.967443050407425,50.754236278106234,False
3.671875,46.74863680921456,-111.80067068220806,-16.593694716104032,53.19118511441613,False
3.67578125,66.15971613275028,-101.68877344420108,-10.814343753829188,26.21563543453621,False
3.6796875,46.55842336159101,-108.82389998966183,-20.424054152882434,0.22195961986154344,False
3.68359375,28.892596552965323,-113.74619713806518,-21.479708177613038,19.92386139106727,False
3.6875,53.68652642905281,-108.40370263294939,-9.777112562798676,55.141318561603974,False
3.69140625,56.65025720991852,-111.3143647001164,-16.11328125,50.23517549048888,False
3.6953125,60.06179471150901,-106.50613076867111,-16.08767355792795,29.673122597184783,False
3.69921875,60.4455352247807,-115.79504180372807,-12.182902732090643,12.820780793128655,False
3.703125,50.62097382127193,-122.81258566337719,-9.843721445540936,24.984523483187132,False
3.70703125,56.45200759519361,-116.8878361548064,-6.922991686833721,61.39731363343953,False
3.7109375,60.92100558835692,-132.86954541712615,-16.823492206166144,61.54880431369846,False
3.71484375,58.647897105900014,-146.19198062813993,-18.522199236459993,32.39887594198015,False
3.71875,54.2799906759282,-143.6085354506188,-19.513300683127067,8.731564854950374,False
3.72265625,51.31242748920235,-140.18676436240276,-22.418041260797647,11.668704387597256,False
3.7265625,64.79314489262958,-129.9940085180278,-22.4609375,33.45312906851183,False
3.73046875,65.4262175113337,-129.3980012386663,-22.4609375,54.05347922601544,False
3.734375,55.69637127037128,-123.55454151222277,-19.054276819629948,43.492570897408406,False
3.73828125,48.340471976090555,-112.30447809130315,-17.088168480425193,11.722100539149613,False
3.7421875,49.86042012889045,-111.81847042144038,-13.181529578559612,19.595239314652005,False
3.74609375,63.03716391232144,-112.37613139108518,-12.740434957527482,34.686769773969786,False
3.75,69.15085505334784,-121.31152613566222,-18.383842164628767,37.03818944359532,False
3.75390625,50.80045459244624,-121.10676245749862,-27.109525765024813,31.40614948998346,False
3.7578125,31.68632116109171,-115.36862766495129,-29.252124111682903,11.212071827329535,False
3.76171875,34.12368563135645,-113.79753218432177,-29.296875,6.431659052965323,False
3.765625,60.14142477256019,-102.71175426353918,-22.56605422563254,35.674803909743915,False
3.76953125,67.7862832277754,-102.5390625,-18.59991977851979,55.92052832258608,False
3.7734375,67.3866414530111,-109.32139465784476,-24.852567360855847,41.13432254334375,False
3.77734375,70.7867517268578,-104.99850670832568,-19.553296393509157,14.270388217545797,False
3.78125,45.41793428731161,-104.00420540528121,-22.460040034156354,3.9093911304527627,False
3.78515625,36.69480561129151,-118.20426896979536,-27.81527855425193,22.569830022362456,False
3.7890625,58.22548249594131,-129.7804478343442,-22.90686095731483,54.26628525508485,False
3.79296875,74.61432399086624,-115.56814415144372,-17.110445363140837,63.18298951274308,False
3.796875,66.12876123305834,-101.42553955509723,-18.996125975987034,36.312040779684736,False
3.80078125,49.19037985128347,-103.94180541835141,-26.689866532270415,15.57142457154016,False
3.8046875,45.94941355991913,-105.44326197004044,-26.85546875,34.80791359055263,False
3.80859375,52.64098444296391,-104.98713950407401,-31.189963213333947,56.828722316669726,False
3.8125,54.668115925381365,-102.07985736192795,-32.700305694036025,50.84424824251057,False
3.81640625,52.261051514060775,-91.37440791186742,-25.43549829218233,27.002054837795615,False
3.8203125,53.707437597638304,-88.87302067060283,-28.80042731115604,21.98432259120566,False
3.82421875,47.36591365519512,-95.70904791168903,-31.732358338310974,42.99573215325002,False
3.828125,49.400827870359024,-100.10510521650227,-27.34375,62.99324722766818,False
3.83203125,65.92664372166574,-101.48876274084114,-27.391462344161614,63.82170671751516,False
3.8359375,66.64804239991116,-93.27404319250444,-32.73949263500889,47.5557758798934,False
3.83984375,47.09318605163076,-94.22284723866461,-34.58308168765538,24.49894956234462,False
3.84375,30.51925447829111,-93.27576543447378,-29.374131764605778,29.707899485394222,False
3.84765625,43.79287230824603,-81.19079481406604,-26.39985325537585,65.99792805780187,False
3.8515625,54.60786974284751,-85.41664273571035,-27.33651088571341,67.86023507857011,False
3.85546875,48.36317643241132,-80.09786803896343,-28.316722856552104,41.11434019481713,False
3.859375,33.69152591211249,-73.73052858105625,-32.71502324316873,20.019800489753095,False
3.86328125,35.7236828880261,-74.66745543098695,-35.62003193346811,24.561058399191324,False
3.8671875,56.130087960623044,-64.33813675488574,-29.267200614164064,62.563058069901366,False
3.87109375,53.31120078838143,-49.07290876945108,-25.307614495267416,70.56281780309992,False
3.875,61.020438711863626,-27.79523740465907,-18.02961240465907,49.495619199136186,False
3.87890625,59.571868012160756,-25.592662098725725,-15.817853594238192,29.342792522437666,False
3.8828125,34.1796875,-36.06676306055872,-26.022013368789437,32.29970148525087,False
3.88671875,34.416393844043654,-33.11591739956287,-32.27639541453551,56.640625,False
3.890625,43.45647948696027,-29.7853595311199,-34.17957133936006,56.640625,False
3.89453125,47.33635892414078,-27.322212139312626,-34.18507196517184,37.52945302448998,False
3.8984375,40.00648648571035,-21.397505628560925,-35.63005302142682,19.014012292853643,False
3.90234375,35.86776092084303,-9.66762172987379,-33.64240461493689,15.479730195441736,False
3.90625,55.751649800128654,-1.0495519167738774,-29.289576058322613,46.248786700514614,False
3.91015625,61.3135929267751,-5.7955092603228575,-28.680862270645715,69.11696924967836,False
3.9140625,50.4134012876769,-2.331922124839184,-22.03834672509649,56.92743751148686,False
3.91796875,55.40859954129143,2.109304403678858,-25.259991892191998,26.357315980518287,False
3.921875,45.256130632389876,-10.28310201670955,-38.588816633354774,8.702970884641303,False
3.92578125,24.578288687741225,-10.803480661872818,-39.04607738122588,38.36951933238375,False
3.9296875,29.91728504257796,1.519585812580408,-38.68370287516082,60.10893849935674,False
3.93359375,45.40537998495109,2.417666234372287,-41.56079750173641,47.99371997453262,False
3.9375,33.36625282167043,-10.084504281342246,-42.94992755903803,27.619812467442266,False
3.94140625,40.4551021756111,-18.47281371569258,-38.1340985495926,15.2571213739815,False
3.9453125,49.74785147874165,-13.70178869539913,-33.71832857585922,36.97476337070391,False
3.94921875,64.41723076451851,-20.4910618567753,-43.92018653516295,52.20900304000245,False
3.953125,87.3338713012314,-24.90611287562029,-48.33795918718985,33.17360018264106,False
3.95703125,34.12081734745451,-27.800143250704526,-46.87009415395454,10.283341326272744,False
3.9609375,22.67482042210378,-21.5014856337683,-45.92410345065245,16.280109929240947,False
3.96484375,47.02755050079637,-23.669376761210486,-48.822022979968146,35.296596460732665,False
3.96875,59.12151732792685,-41.80265432595111,-48.28456324090241,46.45779369026833,False
3.97265625,61.48454969598113,-30.03038872488207,-44.89270914698585,50.54792317588679,False
3.9765625,59.38556551721497,-18.14723305496845,-43.341564385759355,38.750739466550264,False
3.98046875,51.47852687140115,-21.750965827298902,-38.71386156429942,25.955075057799686,False
3.984375,41.24180262316059,-31.522384427892163,-43.8322236884197,28.746908943683476,False
3.98828125,53.95611014749127,-25.98695451778166,-48.738084776848616,42.228356125176134,False
3.9921875,59.9724423072505,-7.115929688935857,-46.903717147583166,50.17810015966734,False
3.99609375,43.15719473627787,-1.5240692385444747,-44.46051442661113,30.494187048211224,False
4.0,41.51458543925749,-12.128717195445079,-49.280808952475034,14.277627331832385,False
4.00390625,44.909521400621784,-15.126129950532958,-50.77595560026648,32.6477813533754,False
4.0078125,44.92325102998836,-5.8578793152300435,-38.573261511747226,67.38412870259756,False
4.01171875,56.206992723520585,6.30242951329331,-30.80506103934391,78.01381760559606,False
4.015625,70.14324831143172,-5.4336432870795806,-42.05473703707958,49.103001947022605,False
4.01953125,47.62040362349914,-13.484746385689782,-50.27095361890468,21.12268075379809,False
4.0234375,27.818181209030204,2.9150896166452247,-48.20846279980702,32.752086300771914,False
4.02734375,59.516927235428106,2.0227083576684968,-39.4811978923315,67.53067713504555,False
4.03125,82.87868403953976,5.760589446326364,-35.743316803673636,75.47367444844352,False
4.03515625,67.75099762045149,2.9966302491729966,-38.03015187568917,53.73588399365964,False
4.0390625,58.28279713632604,6.2823247392483,-32.81750755260981,40.77000364707774,False
4.04296875,68.68182488207547,25.09665121140652,-22.13848761792453,58.79559525085763,False
4.046875,65.46988904373929,5.606559934758636,-24.86788528393776,89.96447427866944,False
4.05078125,78.991839065276,-14.003408486108558,-28.777244197221712,122.78432249548183,False
4.0546875,80.07387751546803,-17.077101296404066,-32.21169630413808,119.1576149381279,False
4.05859375,68.8545363999418,-17.57782586304601,-23.930866578217852,100.59730470425167,False
4.0625,79.58834806523005,-11.218503271840348,-15.625,114.35951906435704,False
4.06640625,79.15800618529465,-7.317578316435923,-15.555275447577188,147.59042595449952,False
4.0703125,87.45860796411725,-6.398805535561137,-5.3506340357755455,166.2430448936382,False
4.07421875,92.62163888787302,-11.38886730178467,-3.523567784523113,141.04056762909596,False
4.078125,81.8551087532914,-22.623507442217672,-11.013327878145114,101.25121713172908,False
4.08203125,74.88081917345626,-21.521615269312054,-15.037411365167852,95.81484580793617,False
4.0859375,79.48365663670056,-15.274761997289268,-14.659056211329943,120.54157701084293,False
4.08984375,90.61803609171108,-37.193103433422166,-20.402276982631868,131.64245571815843,False
4.09375,93.70800374448665,-54.442521842838765,-15.213711885107816,120.76645439613452,False
4.09765625,81.67308535362044,-51.789040484868906,-2.576727517765253,95.96856287138569,False
4.1015625,66.02708722586377,-56.12165417866332,-12.623703500214408,79.7023721782345,False
4.10546875,84.89794311672998,-54.20567971238667,-14.155310528209998,96.62315407911663,False
4.109375,84.46742167399228,-53.7157533099271,-4.396625080403087,114.74253423831475,False
4.11328125,72.29969461184453,-64.94140625,-9.26131099148493,106.33709138002328,False
4.1171875,80.58919908953075,-64.89961937752696,-5.317910457761578,79.98315483528853,False
4.12109375,83.60888008425975,-59.65087416732839,1.5668885286159637,68.18259886366978,False
4.125,93.49065174475031,-66.70928249625022,10.507539078583612,95.4751110688342,False
4.12890625,94.22721386072654,-75.00716688235114,14.082684525085764,130.07359036158417,False
4.1328125,87.53216123499142,-89.56556967501838,-0.21010092501837896,126.54829784749448,False
4.13671875,95.57599958266968,-91.76696313709876,4.800554877021563,97.61664669351875,False
4.140625,88.46415505926856,-89.38388501975619,11.156586448633913,84.13782285668341,False
4.14453125,76.7534812622519,-92.26182499693702,15.1056104125827,107.71961768331904,False
4.1484375,89.78721657911663,-88.3956568932247,13.19196907161235,137.08140142581476,False
4.15234375,99.60339262741975,-94.72267395782283,7.327808173548149,143.06281682645186,False
4.15625,103.47138535476905,-93.72864292988851,12.205505744992037,117.08071464944254,False
4.16015625,89.24590159619272,-87.03359030415339,11.688868048961652,83.10077856989709,False
4.1640625,73.41098014235175,-104.70701449935677,7.28329932155109,96.90985928502512,False
4.16796875,89.35546875,-124.96009212097535,3.4844818817077488,118.45280435487676,False
4.171875,89.35546875,-122.12956965370327,8.20201932716122,104.30019201851633,False
4.17578125,90.79491732839683,-121.1106801144021,13.57875937078841,74.73511848926427,False
4.1796875,90.33870159542698,-118.20408457256187,10.30059866798885,63.623310099393535,False
4.18359375,81.14732453940518,-113.81341195287614,13.154339948082578,80.39575907214837,False
4.1875,95.61069734363514,-107.46192698442478,31.62120621860451,114.04522889036082,False
4.19140625,99.11209027926672,-105.47389484041902,41.96517708780017,123.02372321811443,False
4.1953125,88.8504069449124,-115.71757123330678,42.48351976001593,94.6858823664543,False
4.19921875,72.82760908018868,-110.80529554834905,45.40094339622642,55.597269310141506,False
4.203125,88.41988299196018,-103.59757848392037,43.358687069295556,41.65142252105666,False
4.20703125,93.02134701972555,-113.26952454974271,31.755869425385935,59.18756030231561,False
4.2109375,73.29578955831904,-112.32000237380544,33.30267167973536,67.51119421557216,False
4.21484375,76.59624630177515,-113.41819988905326,39.441221338757394,44.255385539940825,False
4.21875,73.28263683431953,-120.51879160502959,33.760747965976336,9.699172522189343,False
4.22265625,64.04440930531732,-124.96231105274443,27.882283179674097,2.984127090480275,False
4.2265625,71.73905656548641,-122.0846701941926,25.4025897451605,27.709990849362903,False
4.23046875,86.40783413225925,-122.55799551274197,18.56306282161235,30.75812932645185,False
4.234375,81.98925374448665,-126.46484375,15.621500312040554,-12.275858446535775,False
4.23828125,64.48569901869946,-126.49445649427224,14.198652817553908,-40.906057846192724,False
4.2421875,69.86702262581169,-131.2810724431818,20.536348417207794,-22.63056767451299,False
4.24609375,74.25805418785224,-124.4396610722709,23.286833946566404,9.994899429138078,False
4.25,77.1818191389978,-119.382641882734,12.08185010375827,26.596761047767092,False
4.25390625,79.0812834992343,-133.44273425535988,4.892952000382849,11.343588485834609,False
4.2578125,77.72023267122029,-140.1962433571735,5.3353789856959075,-6.204797192783632,False
4.26171875,61.17733909970238,-142.7511742001488,3.9328729538690474,0.28378441220238104,False
4.265625,48.85827431087289,-148.95718678215925,4.876531393568147,27.888561207886678,False
4.26953125,60.59521257044842,-161.12374920554092,2.4051530721636856,49.74124443878645,False
4.2734375,68.32084852058318,-159.58609998123927,-3.4083371301457976,39.338885613207545,False
4.27734375,64.47295535030628,-151.40684820061256,-2.4810669506125573,18.05979613323124,False
4.28125,66.1357271119211,-154.631887864494,-5.37109375,18.022017045454547,False
4.28515625,78.4912408493629,-174.01118560095566,-5.310073549681451,44.01638308625337,False
4.2890625,72.37105785796325,-182.4496913284839,-2.573010384762634,70.14500382848392,False
4.29296875,56.6621017175631,-176.42653861836865,-8.196927262006861,62.61160116048456,False
4.296875,39.766655164558316,-199.4601088217502,-21.841432907452216,32.01625219194131,False
4.30078125,16.722795280338765,-221.5930926569009,-32.71484375,11.937196334767826,False
4.3046875,20.229768855283307,-219.56319391271057,-33.00153139356815,45.84791945826952,False
4.30859375,25.153642513616873,-228.15126725648975,-40.53277601329818,80.11218981776567,False
4.3125,19.591004896279987,-242.52141443461002,-52.12160438275003,69.45046771786997,False
4.31640625,10.319831995834354,-248.49351893684147,-50.30684785438618,47.51942117434453,False
4.3203125,11.227059006508423,-239.29020506317,-48.346663236983154,40.06463557618683,False
4.32421875,25.390804460183766,-237.30603345137825,-50.78151919027565,53.71470616385911,False
4.328125,26.365332964500123,-244.61777903700073,-52.25536642749939,74.22060453549987,False
4.33203125,25.8716082025268,-241.6736755838438,-54.6984470712098,74.55377225306279,False
4.3359375,24.83196113659336,-238.21628143377848,-56.201070174666135,54.10176590066773,False
4.33984375,18.72047879977029,-232.421875,-60.590124904287904,45.438989519525265,False
4.34375,29.928733191926,-232.6013461774075,-63.315038440333254,47.955536135444746,False
4.34765625,37.059275698698315,-242.26287327718222,-54.8167113323124,79.58984375,False
4.3515625,13.08332918555501,-245.59293567944437,-60.68473877611186,78.72506188166197,False
4.35546875,9.059622810972773,-245.28047820427042,-65.83632339786479,45.245274682918314,False
4.359375,1.612566725331627,-250.86577026850128,-63.04367736574936,22.90410642599488,False
4.36328125,8.189396295941807,-236.5668070444104,-58.665354613323125,27.74451450038285,False
4.3671875,24.692841062239648,-212.22215468788286,-55.701033562545945,58.20555384326758,False
4.37109375,18.611845568529862,-207.55910222052069,-62.43844515696784,65.36813265696784,False
4.375,9.813002488514549,-191.0074595616386,-62.5,39.20463246554364,False
4.37890625,-2.4204679459691256,-173.85743862564323,-54.70090051457976,4.453996033447687,False
4.3828125,-4.3685693434150075,-166.49185250765697,-52.24702096094946,-0.9376196401225115,False
4.38671875,9.290803263782543,-160.16432570826953,-52.707455972434914,19.555477124808576,False
4.390625,11.963877716475741,-161.56315447156027,-47.806993824277136,23.734135944391692,False
4.39453125,38.592972339203676,-155.2296791251914,-43.05626674961715,2.3733310202909648,False
4.3984375,39.28556900842266,-152.11197717266464,-49.8046875,-41.04036059532925,False
4.40234375,-5.7940405882825745,-167.58313711127025,-49.62735123962413,-71.60000748962413,False
4.40625,-2.520526821988075,-172.72723017259017,-40.742099588253346,-62.714755838253346,False
4.41015625,12.382842410030628,-163.28753110643186,-44.352956307427256,-38.58992151607963,False
4.4140625,6.4557511006891275,-167.88560011485453,-50.19318888782542,-48.16522899119449,False
4.41796875,18.8726610356049,-172.30432857963245,-49.8112377967075,-70.01773664816233,False
4.421875,13.240665584415584,-172.36328125,-46.90353591720779,-54.35616629464286,False
4.42578125,11.242432762251148,-174.30444223774884,-48.33087074081164,-17.31715998277182,False
4.4296875,27.79033666730475,-164.0882525363706,-51.7492283212098,4.340573554747323,False
4.43359375,27.32167639739663,-159.18453292496173,-44.92349014165391,1.4379247224349159,False
4.4375,7.252823506891271,-163.56270338820826,-46.384415677641655,-22.97455254594181,False
4.44140625,-7.678263782542113,-161.07993156584993,-45.87403091500766,-28.149466405053598,False
4.4453125,8.487419841117918,-154.76182642611025,-42.97458245597244,-7.526709657350689,False
4.44921875,23.83141164581504,-152.95543765547265,-43.44977204967808,16.142318051287678,False
4.453125,17.744200642010536,-160.91563666044777,-42.981525049385425,18.015306052458296,False
4.45703125,9.951306470137826,-162.56284097434917,-41.06204536753446,-6.244077813935682,False
4.4609375,8.33030245022971,-159.248570300536,-38.62342075038285,-25.49513064701378,False
4.46484375,16.944481001148546,-159.1796875,-40.4950409169219,-14.353973248468606,False
4.46875,35.40471262442573,-160.62559820061256,-44.86507585183767,16.203968462863706,False
4.47265625,36.128266175344564,-161.61200110068913,-37.18211619448698,30.146140409647778,False
4.4765625,7.4883350880551305,-153.36760025842267,-33.22537806278714,3.085458939509955,False
4.48046875,-10.217296372511484,-153.80757680895866,-34.17765361791731,-13.637299004594183,False
4.484375,6.884541299770291,-149.37667496171517,-33.68318099157734,15.676594802833078,False
4.48828125,38.58426852029096,-125.02261198315468,-28.347949368300153,49.30635647970904,False
4.4921875,40.42041539050536,-129.4886282063553,-33.781226071975496,47.17936447166922,False
4.49609375,28.42479641154661,-140.00321152969045,-43.85243791195857,26.343968852989644,False
4.5,36.89937268273305,-129.17458629428555,-36.31948122645951,24.46072968161488,False
4.50390625,40.4546922856049,-121.25981049004594,-33.265397683767226,28.23728225497703,False
4.5078125,29.016037015343624,-114.85845885206113,-36.0809516836641,41.75017035709911,False
4.51171875,28.80859375,-111.85768209226646,-33.72580278522205,49.69461858728943,False
4.515625,35.08976000191424,-107.46790653713629,-32.725072980474735,26.129522396630936,False
4.51953125,16.243928263782543,-103.0574930608729,-31.260049770290966,9.876172473200615,False
4.5234375,16.599977268376723,-96.21359949272588,-29.789911944869832,24.853201569678404,False
4.52734375,32.22207599540582,-82.5187834992343,-24.903390601071976,58.10457144908116,False
4.53125,17.551325612557427,-80.11258135528331,-28.327969467840735,55.05518400650842,False
4.53515625,10.848876579249618,-88.8414349636294,-30.25136389739663,24.358878493491577,False
4.5390625,25.00577263591118,-85.24236097817764,-27.251208365237368,17.269483393950996,False
4.54296875,34.49926985550242,-66.5818963370085,-18.834545474672336,33.61997155065533,False
4.546875,56.2255657582064,-45.327911214798085,-4.665222059865391,61.958618380269215,False
4.55078125,73.94525267993875,-41.557086284456354,1.8543620788667683,78.8432594754977,False
4.5546875,80.49058432235834,-50.18798454249617,9.189856910413477,79.58401129402756,False
4.55859375,57.3255825638552,-47.3878657892319,7.8247922696159495,55.864836237060516,False
4.5625,30.40175153139357,-59.02603967266462,-9.681637633996935,32.824493922281775,False
4.56640625,41.97854852603369,-71.76256819486983,-20.49531010719755,52.22336212672282,False
4.5703125,42.50379857388974,-80.54540940849924,-20.006699846860645,77.61455541730474,False
4.57421875,52.16108944295559,-71.69820180895866,-14.671886964012252,68.23626531393568,False
4.578125,37.99672134363898,-58.6970529178917,-18.51242721540794,47.842171325646206,False
4.58203125,29.03366673047473,-69.38095209609494,-14.095849684150076,47.06148904096478,False
4.5859375,45.87385145482389,-72.77029694678407,-9.433055369448699,61.16628182427259,False
4.58984375,44.4432320224511,-73.60517120813574,-18.564325772451095,68.59706116627149,False
4.59375,44.9174466045495,-67.44038164085654,-19.038540354549497,56.2674820317131,False
4.59765625,37.639829393185295,-66.89734279287902,-16.6156202143951,34.3062069295559,False
4.6015625,17.622269501102533,-78.58744056642779,-27.807267261576627,25.89721006753032,False
4.60546875,23.463639765558007,-79.10018672286537,-27.334807448624893,55.70120848263506,False
4.609375,41.9921875,-78.13953627488515,-21.000939174961715,81.99975473774884,False
4.61328125,41.88332165717261,-80.97513169177998,-21.976843397801055,75.4574877687431,False
4.6171875,29.131053790199083,-71.83064342457887,-22.520159360643184,49.079518807427256,False
4.62109375,15.75566891959145,-76.30254391959144,-27.420614070347913,30.05418049621769,False
4.625,24.236696018376723,-84.46323459035222,-32.141767563169985,47.48740787710567,False
4.62890625,39.8824631722406,-84.01793199880558,-27.73136025358324,78.43431058970354,False
4.6328125,33.306494065849925,-85.34584968415008,-23.41165773353752,69.80585399119448,False
4.63671875,37.4234403842146,-81.45731455430511,-22.36100760502263,33.10319510502263,False
4.640625,47.75465993660419,-78.64719714718854,-19.028433365490628,29.89174906973539,False
4.64453125,28.14985523545176,-85.50326617534456,-16.12159623851455,51.227956307427256,False
4.6484375,8.502123242833518,-91.71396947353914,-17.119452866593164,46.39856239663727,False
4.65234375,25.017191232543183,-84.81546402211197,-19.554219496508637,47.17952527793091,False
4.65625,32.10446975497703,-75.91838749042878,-20.98670200038285,35.23129426684533,False
4.66015625,25.834283217720202,-87.7344443870207,-20.3516318870207,14.494828992098494,False
4.6640625,24.170714490811637,-80.86131915199081,-13.865243348009189,29.46604613323124,False
4.66796875,33.84794576136225,-74.18477428641431,-21.201263992251622,53.798867603822124,False
4.671875,54.32690467075038,-88.45742008039817,-27.55338940467075,55.90304364471669,False
4.67578125,42.96498156697905,-76.02475657119012,-19.3133986815509,33.941797688503,False
4.6796875,17.697466022205205,-59.988006077718225,-13.771325851837672,15.832874712863706,False
4.68359375,20.856609112013928,-70.3987072874347,-16.174833593296576,33.334504679338366,False
4.6875,28.749818630295994,-83.39928767048752,-17.567752920052236,58.407052560940215,False
4.69140625,30.754062251163788,-74.255118369472,-18.550859250581894,55.18918012296337,False
4.6953125,22.463988136255054,-71.29013919514884,-25.876214512127895,34.675505616041896,False
4.69921875,35.11979190593225,-78.5926745011791,-21.002434288098737,20.04330826787027,False
4.703125,23.862704859196988,-72.24902594978867,-22.962497990169055,27.586096133085263,False
4.70703125,14.96687009027012,-69.80905529332047,-24.816417495482664,63.09947993231655,False
4.7109375,45.226837672281775,-68.40011246171517,-16.62193123085758,73.48604397970904,False
4.71484375,31.952842666605413,-71.1949713072706,-18.06640625,55.895731406192574,False
4.71875,16.766177224978563,-65.82537296719956,-18.00467572813304,41.61707887342276,False
4.72265625,24.16157748759647,-61.42725273337008,-15.10064946251378,47.355923833149575,False
4.7265625,15.123259236217457,-57.30073937595712,-13.65811638591118,66.43376722817764,False
4.73046875,48.53177113676085,-46.60817342703175,-13.124539169458199,67.07277595215555,False
4.734375,54.590611800903,-53.59914342411885,-11.260280503568307,57.285417956233616,False
4.73828125,15.148741845828738,-63.35453704979787,-15.087908569919147,39.770427060363836,False
4.7421875,14.164522846992528,-57.185672010902856,-19.008035974059784,41.970354515037364,False
4.74609375,28.72963610575156,-54.70065960737474,-14.67212479327453,63.36075795510229,False
4.75,32.70766578234105,-59.073956036383684,-14.161053495957368,80.04761863744946,False
4.75390625,43.947824788680634,-56.11800913803136,-12.213730686481686,83.43579882166483,False
4.7578125,45.23524239088821,-36.204835853751916,-16.154437452143952,48.185507991960186,False
4.76171875,12.20703125,-49.991165118139776,-23.93011793879395,19.155722658642656,False
4.765625,12.200959885688473,-70.7582816998193,-24.280492485146393,31.981135822461106,False
4.76953125,11.703137920341787,-67.39842457965821,-13.49233608393054,51.30075540931643,False
4.7734375,10.770809646040059,-68.72192218317407,-2.6035984108936665,52.678835475238884,False
4.77734375,12.120926107627318,-87.20466735550781,-10.871345213559025,25.164599001271707,False
4.78125,8.378892546263813,-99.83403062510963,-16.48439555560428,15.34176090269251,False
4.78515625,7.341206606792846,-95.29978303396423,-16.121775178396422,39.605872151782435,False
4.7890625,15.510092701059659,-96.17788774424231,-22.373067212575034,57.855376393482786,False
4.79296875,31.089213524439543,-95.22489290472252,-14.245574065141492,60.52175211319368,False
4.796875,34.64493943709421,-89.87993892028054,-15.13013894631263,44.5421605108416,False
4.80078125,22.499818158152642,-99.57827047347789,-31.198677531238516,31.29199111080485,False
4.8046875,33.69454661085079,-101.07227471709237,-25.878308086028422,56.15952171765895,False
4.80859375,43.91328081932194,-94.72467828348952,-23.929549683020948,79.5973806160419,False
4.8125,35.66986349419637,-94.25999460216832,-24.942151562308588,81.41992642104618,False
4.81640625,38.94472151399608,-97.35534361409715,-30.268083932454367,64.679081440264,False
4.8203125,27.97298858990261,-114.3145184445057,-29.756803277747153,41.19991931964351,False
4.82421875,4.419862682455009,-117.98674247281494,-27.933356979820037,54.00647087864177,False
4.828125,5.826744680227446,-108.13856848840788,-33.56088497090978,70.42009418598687,False
4.83203125,37.927015067066826,-101.20945534046365,-32.73416326292338,72.23664573061494,False
4.8359375,33.77066297623423,-106.35813010114235,-29.832710285740536,66.98171364885765,False
4.83984375,37.54812827315325,-109.33785401736493,-24.482163468164277,50.02137239870452,False
4.84375,50.66092931711687,-104.05292578747091,-29.25231178411736,46.90173792952959,False
4.84765625,28.446876244104857,-106.43155557129295,-32.21005418555154,64.35407511330925,False
4.8515625,41.96371489495284,-102.05993315876516,-16.634102620053902,81.02011362244272,False
4.85546875,66.86151462110308,-91.32653757005268,-15.147485042031605,82.97192485989466,False
4.859375,44.39725528872657,-103.4623285901323,-22.402795961962514,58.58890487183021,False
4.86328125,37.32555145932868,-92.70276442675794,-10.663199947552982,57.89156531376332,False
4.8671875,62.70621702920189,-84.42552092903956,-1.3705731080791375,89.94391255704092,False
4.87109375,79.41381398739397,-80.47839136869699,6.42100198441918,97.82181001855561,False
4.875,68.10372916175777,-74.82334895587888,11.133537328434262,77.08665450488925,False
4.87890625,38.116830776857356,-88.14444033464507,4.511764207677467,56.02413515572365,False
4.8828125,38.07929787991547,-98.9750221081404,4.876172879915472,60.480478799154724,False
4.88671875,64.67163429881784,-94.77070700110254,12.133457081495774,83.74893766078648,False
4.890625,79.97892558147547,-90.36083108118454,6.386056024912721,99.02189433147547,False
4.89453125,78.13086200692148,-101.04197771193189,0.01905152249479336,86.95070004325922,False
4.8984375,67.3789842505819,-103.02782228117727,3.4170116876454735,63.4772802967659,False
4.90234375,59.59202585216832,-103.98219289783168,1.4885310432745313,65.03220754088571,False
4.90625,64.98961531320818,-98.54751954201629,7.32421875,87.51730382380413,False
4.91015625,71.48394432194047,-87.36445006240046,7.31880536605721,102.5336491160572,False
4.9140625,88.76712079683959,-83.984375,6.893118473234519,101.72199065390151,False
4.91796875,81.90310431197541,-84.00146109173662,10.759273591736612,79.46169806197541,False
4.921875,74.81006730996572,-84.94719935867124,11.705011858671238,72.36866105996572,False
4.92578125,78.56997683093955,-77.71791453573834,19.444641161879098,101.72058505466406,False
4.9296875,72.31344820952775,-85.87496195677141,13.231416959527746,124.82710070401507,False
4.93359375,95.60838163012188,-85.45119257020579,4.916367443498499,116.24646626370429,False
4.9375,104.975922703816,-74.7122950929499,6.8349804376454735,98.64142606119074,False
4.94140625,68.83446754226128,-87.4067399859129,10.240717542261285,95.75587983095485,False
4.9453125,64.53238172623423,-88.82597400235821,5.887907421444322,113.3731878024317,False
4.94921875,76.85634201590923,-82.41653372289765,10.288238759034115,127.36293194363631,False
4.953125,96.06582172416697,-72.33172211885949,13.685094423771897,119.09351958723815,False
4.95703125,86.73884109718564,-77.20684463427145,14.823658902814357,79.86118421556317,False
4.9609375,76.8711884991731,-80.28502991776921,24.892294595277473,67.93551600973906,False
4.96484375,86.68578268688816,-66.84887528737764,24.573858369178286,94.35242115655592,False
4.96875,77.19305055992287,-64.95032886198457,31.21877085805399,99.09878722003856,False
4.97265625,57.64111259340356,-72.74433621263857,24.422436282691248,90.3427975420316,False
4.9765625,43.88002290250214,-64.96685812699069,38.64614796758239,54.61889059245988,False
4.98046875,14.878178209407729,-76.1832394193667,70.27272453221657,24.340193774116493,False
4.984375,-29.41506496141361,-78.13409153549335,63.54474901620016,11.536919290132909,False
4.98828125,-42.24222004012005,-79.31409015910205,70.92579752006003,-8.18129799667708,False
4.9921875,-61.898732496401664,-95.32783000359834,80.62230124946407,-37.34772874303301,False
4.99609375,-84.88931175162308,-72.42445771383291,84.31382353616709,-82.0527227713297,False
5.0,-106.34616682171077,-56.24350393926865,100.81383797317163,-131.81485222000182,False
5.00390625,-143.56530426019782,-60.12423822502603,110.66665598012494,-151.44596087003123,False
5.0078125,-162.27377029804924,-62.39616509462853,122.23348163701232,-154.68254750566547,False
5.01171875,-182.65514134068437,-58.88903378886473,127.52182185880636,-167.92500856215378,False
5.015625,-169.62834401030503,-53.23593467683898,129.89609092683898,-195.5736423944999,False
5.01953125,-191.58009570994366,-54.76106966221596,131.2618249774147,-224.0536548929687,False
5.0234375,-243.2919122178753,-60.44501391483433,124.50388328191033,-218.3660620636063,False
5.02734375,-221.13416546403198,-54.285079928952044,123.94711645204264,-194.73835757104797,False
5.03125,-217.98058168335783,-58.57125903466863,120.10594201733431,-190.39595105200294,False
5.03515625,-205.4706161572855,-57.13695106265695,119.31740153388559,-189.05569929220005,False
5.0390625,-184.41976384975806,-39.726989562917254,107.0144306593373,-192.20660418708275,False
5.04296875,-194.70611850768665,-45.44293362796289,77.91194704324126,-184.91734597981872,False
5.046875,-176.21470952200477,-46.40481321014027,71.32498224649332,-137.62239631186452,False
5.05078125,-147.9864521766093,-47.13276297505666,58.995302786412076,-109.99465991915233,False
5.0546875,-113.39650913747167,-53.78250343564341,45.17329782530471,-101.23951123905188,False
5.05859375,-94.30797495608559,-67.01951491819581,39.37813479908252,-93.1587660051681,False
5.0625,-85.48154211246444,-90.24696976983044,25.441661888101734,-70.39586025056617,False
5.06640625,-28.819001165630553,-103.02501105339316,10.256687542108164,-23.44611303362528,False
5.0703125,-3.3743652672720033,-101.07744863760948,6.805253567709928,17.135062176532738,False
5.07421875,9.934924942196975,-102.12049299090464,-2.5409944512923377,30.75507953658051,False
5.078125,34.73830852460648,-112.34488165691799,-17.275741725745696,29.9610056865162,False
5.08203125,41.73941888819134,-116.12346137724322,-35.14952106748025,47.406585669060455,False
5.0859375,59.12506651175966,-109.88014844084951,-34.6089335820267,85.97210166633491,False
5.08984375,89.71030779154162,-111.27578885817971,-31.493318199914253,115.90514489993569,False
5.09375,106.18476823283518,-132.08463884593004,-42.945064157530474,124.39328953765235,False
5.09765625,95.703125,-141.77823022900589,-41.82960653252481,119.56116418021867,False
5.1015625,96.32969328987261,-130.78296423294236,-36.16337680682305,117.89047905693023,False
5.10546875,116.77381331997084,-128.70905840014578,-37.17406158892128,140.71576621720118,False
5.109375,147.09451302842567,-137.10555985787173,-39.03995080174927,171.50293822886297,False
5.11328125,160.04661325947816,-130.9141933702609,-43.4190800705886,176.2315800705886,False
5.1171875,153.35548238730323,-128.43052942403688,-42.48549301961475,151.49530637517609,False
5.12109375,145.5207320504379,-131.34281141858577,-41.50552119380474,136.7429741570711,False
5.125,136.25558855952966,-129.87922395578147,-46.3777473894537,148.9643581003491,False
5.12890625,149.96921438606296,-127.88082049672322,-41.49619040737735,169.96559810819502,False
5.1328125,162.58910302910823,-118.59674781420347,-40.09465843579653,178.07725149483983,False
5.13671875,161.53735592308752,-112.37646278021069,-46.32690601649109,161.5493184697893,False
5.140625,154.73135469620874,-118.36389684265328,-41.48853437748821,156.02304058270045,False
5.14453125,151.16998491762112,-130.99084338825259,-40.59307794412629,172.62621802650517,False
5.1484375,141.23532913272493,-137.57326461727507,-43.80107409314326,186.27925201544986,False
5.15234375,146.49659845294497,-132.0675262381558,-37.622103155889924,196.41064016165117,False
5.15625,146.96451680119318,-122.24124092494297,-38.55793985238638,182.37308971420424,False
5.16015625,135.89901648726035,-112.9225231307803,-38.092756151620016,158.53723892938078,False
5.1640625,146.37186724826972,-109.89396518229007,-43.88394463541986,153.85461964843512,False
5.16796875,142.60539960648006,-103.5599462355301,-49.763775590279906,159.14218491608992,False
5.171875,128.4682681781296,-101.5694378521558,-45.912313204311616,151.88148569558427,False
5.17578125,107.91141231740369,-100.58599731273351,-37.59816465823482,141.1139391900686,False
5.1796875,118.66071701984322,-80.10826877143558,-26.882263213498284,128.9029006920627,False
5.18359375,120.93297337232805,-88.97102240537147,-34.718211446147485,128.11056120613094,False
