time_s,TP9,AF7,AF8,TP10,is_gap
0.0,-41.50390625,-44.921875,-18.06640625,-53.22265625,False
0.00390625,-37.1082423043465,-42.481124521167814,-19.04499567906416,-30.757068736264575,False
0.0078125,-27.830988041371626,-47.85290376823648,-35.64438222019594,7.320194945290563,False
0.01171875,-24.419695826593212,-52.246719675177026,-35.15395494101758,-5.873562637345867,False
0.015625,-37.60785051088151,-53.71308366018558,-29.78944857037116,-39.07001156064953,False
0.01953125,-56.145190319405444,-57.61289544164327,-37.59980227917837,-52.711126350567696,False
0.0234375,-46.362933593273105,-51.75155324822976,-40.51983264787572,-20.966883908405567,False
0.02734375,-18.552779802057263,-44.430732203085896,-31.73112738271473,13.182162976542946,False
0.03125,-16.625347656726895,-41.50843675604322,-24.42142457232023,11.667781807013796,False
0.03515625,-37.120641653186425,-45.410782175177026,-30.76860392694726,-32.25973653438225,False
0.0390625,-45.8840403420884,-45.88883939472559,-36.12321439472559,-58.066390749954216,False
0.04296875,-35.62440821610376,-39.07410944263245,-29.30229273989514,-30.24712276336646,False
0.046875,-22.950470676774923,-46.38671875,-32.72089472941212,-13.669371146450155,False
0.05078125,-25.88069460764864,-46.38344009431083,-46.87172134431083,-7.820547609418874,False
0.0546875,-28.810024436118912,-41.01777102917837,-41.49603747634599,-21.01361965495666,False
0.05859375,-30.767561074949636,-43.94739904462487,-30.760884132150053,-44.90643456977596,False
0.0625,-37.57384128731229,-46.38469194466487,-29.78566295133378,-26.83317389131364,False
0.06640625,-14.637111234891954,-44.42793061744598,-30.279100632554023,-5.352971725827127,False
0.0703125,-4.913484705985593,-39.565804371299066,-35.16313559726207,10.220730190464563,False
0.07421875,-28.825761983426933,-51.26452384858381,-40.520190319405444,-15.685088816994263,False
0.078125,-40.51494447030277,-47.83683835535954,-35.65383070977292,-56.62435094539739,False
0.08203125,-32.681459036002074,-38.58423416419938,-41.513087046349426,-46.33831091470301,False
0.0859375,-13.17989781085948,-44.44560555220669,-46.87592398478513,-18.05069850865279,False
0.08984375,-11.207870855564025,-50.77830244855183,-47.356403629954265,-9.802960651676829,False
0.09375,0.0,-49.30981873054148,-43.93923171280752,-28.345649113301995,False
0.09765625,0.0,-42.967557761567576,-38.07759183097302,-52.731990523135146,False
0.1015625,0.0,-41.98431872634599,-31.246065613172995,-50.73797174490294,False
0.10546875,0.0,-36.13138172654295,-28.326750980556742,-18.50747197591722,False
0.109375,0.0,-35.17395474072153,-32.7212818375351,13.645317888917715,False
0.11328125,0.0,-45.89152251709193,-36.6115856485014,-2.501912350445611,False
0.1171875,0.0,-41.973706676179724,-31.237987464516817,-36.62571395595507,False
0.12109375,0.0,-32.248857358686365,-24.922611803351238,-39.02804430930289,False
0.125,0.0,-42.96660397082163,-34.67011477917837,-22.445915295751433,False
0.12890625,0.0,-41.97746245650449,-35.63886777173249,-15.675971304407545,False
0.1328125,0.0,-35.6579737383256,-33.20434704439324,-37.65875846966183,False
0.13671875,-0.11524354683783619,-41.004100645316214,-33.68116237916997,-61.99635294375496,False
0.140625,-43.91580459879746,-36.613940319405444,-29.782473713527043,-56.10852898760835,False
0.14453125,-27.79101574423112,-32.72438223971369,-28.30600476542946,-32.17123925966058,False
0.1484375,-6.863060924337688,-37.60808833628373,-21.018001131195824,-3.9448487192497863,False
0.15234375,-19.589699489149677,-42.470543365050055,-31.251102820549995,-22.0630875350995,False
0.15625,-45.38690618132287,-38.07314996222758,-31.71038116758745,-61.990793688190585,False
0.16015625,-35.575679480527405,-32.71859930106214,-20.02078310035405,-53.112493418843854,False
0.1640625,-8.786439575448663,-34.16263849041631,-20.51568127365401,-10.214562381729948,False
0.16796875,-7.842665473719554,-27.847113986859778,-23.44298463158537,4.3547676710060435,False
0.171875,-18.595581278232206,-33.20750647623917,-25.38770401584056,-9.847412556464413,False
0.17578125,-32.26456510003357,-34.66796875,-24.409502187995972,-37.179299784061776,False
0.1796875,-44.39251862867041,-34.68218706122947,-22.957117811794152,-59.50869981800562,False
0.18359375,-31.716598393467123,-39.055828351836034,-25.403968296327925,-40.425601115499575,False
0.1875,-25.398851445183737,-37.118972519381025,-29.283164258027103,-10.731218906421683,False
0.19140625,-28.361802397448418,-40.545942669545845,-24.4140625,-6.896026316994262,False
0.1953125,-42.53561314365729,-46.87201922196447,-24.415552889017764,-27.392932837586226,False
0.19921875,-60.49474437454218,-45.88422005669332,-24.90234375,-43.38910346531254,False
0.203125,-44.35654534130448,-41.50882423353376,-24.903983077844586,-22.337987911656086,False
0.20703125,-21.513258739164275,-42.977245217401254,-25.409314478282766,14.146563902157988,False
0.2109375,-29.837018621810525,-45.411944607648635,-30.799274260621413,10.091165703973873,False
0.21484375,-43.96009625656208,-45.90398140871078,-40.9879054564461,-34.27023800894274,False
0.21875,-47.817223937030704,-47.37281973971369,-33.67042157262988,-58.0310685302332,False
0.22265625,-38.99460202127335,-49.788711505005494,-28.33828549436882,-38.984617024401786,False
0.2265625,-22.454767666112197,-45.88815444352033,-32.702504082224394,-19.99690852574472,False
0.23046875,-21.019329653987935,-43.45703125,-29.778819185276017,-14.663223984355959,False
0.234375,-26.399228907871443,-43.45959456262972,-28.324157468944573,-18.15355887941033,False
0.23828125,-38.62921410475551,-44.47249290336365,-29.82405540336365,-51.34196415626335,False
0.2421875,-58.55082941643267,-58.59947274447564,-43.96534210566475,-77.53943209391406,False
0.24609375,-43.88719087641924,-60.505146654865094,-50.72461867445978,-44.320331098919546,False
0.25,-24.9271438232556,-46.885850032049326,-32.215712467950674,-7.397068965188328,False
0.25390625,-32.75910560180381,-50.27985412724332,-28.833183667668784,-30.366879187141375,False
0.2578125,-45.88484598187035,-46.369729352337934,-36.11412416257173,-58.05619949678,False
0.26171875,-41.91480650219767,-41.489836977672304,-30.75292545479519,-43.83099966233746,False
0.265625,-20.44128559547064,-37.58287249343792,-28.31661656085948,-12.103544954065438,False
0.26953125,-2.9449490835419083,-33.697129343828216,-27.360919281484648,15.087118603488799,False
0.2734375,-6.911823476223904,-35.166234996871566,-31.76224524249176,2.3116012906696373,False
0.27734375,-25.365986272777135,-37.59765625,-37.55864493189713,-29.288662090925712,False
0.28125,-19.474857122146258,-37.57929577814064,-28.30326349041631,-27.283422735319252,False
0.28515625,1.4758123435783177,-30.75760552740813,-21.97951162098645,-4.837567051489439,False
0.2890625,5.369662976542946,-29.31118273457054,-24.401185538886516,11.213299468515354,False
0.29296875,4.828088755951654,-34.193368436012086,-20.043852914021485,5.284447821923453,False
0.296875,-12.749022841380784,-38.569479602231105,-27.854147272921498,-22.525705852841533,False
0.30078125,-29.24605273449423,-37.11921156751725,-34.643377331206885,-42.40341563778158,False
0.3046875,-14.125581335459652,-40.05980744872421,-27.361037457270175,-19.42061027347088,False
0.30859375,-4.40883811118911,-45.87697720821634,-32.23013921529728,11.715173284702722,False
0.3125,-8.374704545281118,-40.02797400570783,-33.21051732952811,10.546290767505036,False
0.31640625,-27.884340711222684,-37.132623649432304,-35.14462567528385,-41.10280743537114,False
0.3203125,-40.9696940143908,-42.972743998748626,-32.21258350437981,-62.81653930380906,False
0.32421875,-29.748191401011827,-43.91861566461965,-28.80448654455687,-20.83385913499634,False
0.328125,-21.0044990309486,-37.585048328577095,-27.83203125,17.550107396837994,False
0.33203125,-23.97836217454673,-33.20604616247482,-27.85247938732373,7.697114082244673,False
0.3359375,-41.55350336878892,-34.19208677969723,-34.66176911015138,-30.834564518221217,False
0.33984375,-57.05969680899768,-38.1116898501404,-32.705186618697354,-53.61758523074106,False
0.34375,-36.05769689350467,-45.89009132150052,-29.783487014300103,-25.3021555079055,False
0.34765625,-14.165431905063484,-43.439445733121715,-29.29511644831217,0.43200759598950067,False
0.3515625,-15.681363071892932,-38.57603691360945,-28.8013210955622,-15.253081221004761,False
0.35546875,-30.797398663085282,-39.047476878700934,-26.847957189350467,-46.40549765162383,False
0.359375,-40.00758740538396,-35.144446839518984,-24.900376556586497,-51.18100754639238,False
0.36328125,-32.188053198632645,-32.23669652667562,-24.43635735868636,-29.21580278659504,False
0.3671875,-22.907487857502595,-34.66170911612539,-29.78515625,-9.757278821500519,False
0.37109375,-13.274850702910697,-33.196606646220665,-29.772119542441327,-7.9559037831453825,False
0.375,-33.75185642856053,-31.74758127747085,-26.884918836991027,-40.12276274723765,False
0.37890625,-52.655687263459896,-34.67616538922293,-36.12297653293248,-66.31444764070321,False
0.3828125,-29.261197264909658,-37.109375,-33.16235044561104,-38.93507951753449,False
0.38671875,-19.053520704245773,-37.10234036383615,-21.514272203696354,-2.4132677053446066,False
0.390625,-21.97450421957026,-35.16364187828104,-29.801787976132342,5.274999332346478,False
0.39453125,-22.50481187431327,-37.09411434806495,-34.17396475552436,-20.09201934669149,False
0.3984375,-33.659929233944816,-33.22279813503449,-32.70500718248275,-38.52306859891032,False
0.40234375,-25.808981465938224,-38.09005072259187,-30.24670155315285,-25.75756618353986,False
0.40625,-9.290041089305335,-39.04768643747711,-23.944827258958004,2.942384839305335,False
0.41015625,-12.254902545250594,-35.698930449148406,-28.329016371863744,5.689649498656981,False
0.4140625,-23.037563617842753,-47.84703199395678,-30.282498512086438,-32.38513021151264,False
0.41796875,-41.9898654699122,-46.849457669034265,-32.2265625,-66.33658909736617,False
0.421875,-41.44667880524356,-41.505694607648635,-32.215832354108166,-51.61653224575754,False
0.42578125,-25.830859041173238,-41.95153216945428,-29.280243273867658,-13.102283088908559,False
0.4296875,-13.193132239713693,-31.25953848971369,-24.894712958229047,8.197765561092119,False
0.43359375,-15.706876974346844,-33.73334323686058,-22.969188743743132,-18.23615119681663,False
0.4375,-35.66304075166341,-43.92680299833659,-27.852597362959347,-59.5764823338878,False
0.44140625,-39.94382664176485,-39.535966783163424,-32.70849469278432,-60.804473837830415,False
0.4453125,-18.01567650470028,-36.15486891099988,-31.243383076700038,-7.66251640520083,False
0.44921875,-6.919751861799536,-40.99523772280552,-29.776095237913562,25.22073102337932,False
0.453125,-25.023244107121055,-36.609468715661436,-27.845981291206275,-11.465294443638973,False
0.45703125,-50.31952586108228,-34.22314459086192,-30.79069014390795,-60.58791780803626,False
0.4609375,-55.579950078592354,-42.96627610525272,-36.596354802527166,-68.65716635445916,False
0.46484375,-39.022005914994814,-42.44756730593329,-31.720565087810233,-31.136110385922922,False
0.46875,-31.256259251770235,-36.12863966548651,-28.284843406635332,-9.298207922567451,False
0.47265625,-32.68908982777303,-35.169126961113484,-20.002361968515352,-14.20951793426836,False
0.4765625,-26.95829931479673,-38.07252481763521,-16.153519297094373,-25.587344341350263,False
0.48046875,-49.4334542581034,-35.17231541287694,-24.90004869101758,-68.44199712336712,False
0.484375,-74.21875,-38.55302541816739,-24.395223982815455,-85.85508148731762,False
0.48828125,-74.33362217296423,-34.14791434577585,-20.512700677572948,-68.96986068932365,False
0.4921875,-97.30567228894519,-27.899631169118546,-21.451826890794774,-93.44699260239898,False
0.49609375,-124.14135707908552,-41.013061530889445,-15.108520589783897,-129.55090286574384,False
0.5,-146.48172226948785,-40.55652378563362,-9.765625,-159.19295115256074,False
0.50390625,-145.9364222164571,-45.91471155460261,-9.822584191109144,-161.52344942238432,False
0.5078125,-135.386968181506,-48.75327766352787,-20.013987002853916,-144.14553732220256,False
0.51171875,-157.76236764773142,-35.65310699094402,-19.002948625594584,-162.34092000548847,False
0.515625,0.0,-37.15337128380441,-12.231473629891337,-201.7823681494567,False
0.51953125,0.0,-45.89083697999329,-17.067042189979855,-225.89940678984556,False
0.5234375,0.0,-44.407662564094736,-12.674567551275791,-192.2427840961116,False
0.52734375,0.0,-39.57731017451621,-8.831508779225933,-166.15357540748428,False
0.53125,0.0,-44.461015233945794,-16.620757538762057,-191.4994830454157,False
0.53515625,0.0,-49.28278512620559,-20.039143572213405,-207.965786095257,False
0.5390625,0.0,-43.46847743765643,-23.45180773457054,-200.5347933104664,False
0.54296875,0.0,-45.43671336108228,-25.90841415120254,-175.03920079965818,False
0.546875,0.0,-49.75651812694585,-30.75569757836823,-133.05993438472925,False
0.55078125,0.0,-42.02628551916738,-29.78515625,-94.36537386689659,False
0.5546875,0.0,-47.37907840922964,-29.807272272921498,-114.34943602353192,False
0.55859375,-0.6208206889715749,-49.75000381237038,-33.14844131237038,-128.19280062446626,False
0.5625,-94.02212842220119,-41.51266920247833,-24.90234375,-94.00168153308509,False
0.56640625,-57.97730311851422,-42.971730596081066,-24.961955671621293,-54.52356721554145,False
0.5703125,-37.10025381921128,-43.43574849482632,-34.65884756921128,-27.914121877098466,False
0.57421875,-35.697734890047,-40.05158100354047,-33.21877312942559,-41.181495171911244,False
0.578125,-43.792229085276524,-42.011322926840435,-35.60944963412587,-66.70317698159566,False
0.58203125,-20.30637152035895,-44.938120240293635,-30.25719225970637,-37.30524192471461,False
0.5859375,9.782316338053962,-47.40000219371871,-27.905473137437433,6.361009320443169,False
0.58984375,12.21722488859724,-52.68680468654621,-38.53684207514345,8.317770647662067,False
0.59375,13.613094057139369,-45.87769128487272,-33.22732891764849,10.624625614278738,False
0.59765625,5.353359203317666,-42.9793907280094,-36.6636566620376,-5.98351682677634,False
0.6015625,3.106407041646319,-44.37588940987059,-42.448010058677205,-22.707581825708093,False
0.60546875,26.987216320227287,-36.63939202364268,-38.031042679071966,9.98886393844068,False
0.609375,44.356336699578804,-39.059638627762176,-30.74741188881089,39.47066282734098,False
0.61328125,31.127311176057628,-38.58298223742445,-28.364129937122275,25.662740226863438,False
0.6171875,10.787343530628128,-40.04207290204187,-35.6324896418325,-10.244875043874375,False
0.62109375,18.192276822503356,-40.530413763963494,-33.679126194146015,-8.574161522555244,False
0.625,38.136014570996885,-40.99684609837617,-31.753930334686526,25.58154383317563,False
0.62890625,45.798647143205955,-38.095594631302646,-34.21509698144305,55.06955280567086,False
0.6328125,30.624015211054818,-39.5737318398242,-39.567174528445854,38.783814266420464,False
0.63671875,10.227198478801661,-42.935365286002074,-41.968818200201454,-2.5282065063946035,False
0.640625,6.457342185783177,-38.09622055647967,-38.58107412098645,-14.883070023501404,False
0.64453125,22.08076246986021,-39.540319357755465,-39.56821773707423,21.19138240523135,False
0.6484375,36.97813134309566,-38.089484625862276,-41.98509324827544,48.14475182757463,False
0.65234375,18.930434948202315,-38.61051997638635,-41.00836475472273,21.24478690585009,False
0.65625,3.963480938282156,-43.40838495246017,-39.978970014803735,-10.719295124687138,False
0.66015625,13.704333691322793,-35.19756106168356,-29.80581178084178,-6.658890092784763,False
0.6640625,19.033937543874373,-42.0283123245025,-33.227208216335,22.608447200051888,False
0.66796875,17.602686611012757,-47.79936907659789,-37.038760368338316,46.38057834724681,False
0.671875,21.468577840770358,-39.53814352261629,-25.83783363600293,45.25850352139543,False
0.67578125,18.994683093486753,-37.5847800749298,-19.573097568978145,21.75698031757417,False
0.6796875,11.794163684298884,-35.62485811496551,-25.908415952551735,-10.693004662413772,False
0.68359375,22.92564223499878,-32.76536485357404,-30.33069475071725,-3.256301218563057,False
0.6875,19.541533056479672,-40.069911669439016,-38.605067919439016,20.053808104932244,False
0.69140625,20.947268605778035,-44.3882561160796,-42.9234123660796,24.724480724619987,False
0.6953125,13.927669755676963,-38.118127937675496,-36.610363604108166,-0.20029605664754,False
0.69921875,-17.53092477677211,-42.52766897322789,-35.138096067989274,-27.158579893490582,False
0.703125,-11.000293070096454,-48.75730171387583,-32.65287337464135,-2.193524748565411,False
0.70703125,26.8767502060188,-37.054651255951654,-22.400133339946283,38.5316558379624,False
0.7109375,30.081248664692957,-28.373009438713222,-12.732510339091686,31.533693134995726,False
0.71484375,-0.12322536398876746,-36.66532849604725,-18.649476241529822,-0.6399432364477138,False
0.71875,-18.97149405597607,-43.45053355054328,-33.203125,-23.896541602444756,False
0.72265625,-8.22137817040044,-42.437458748550235,-33.156806536900255,-19.289732299551336,False
0.7265625,3.441546704261034,-36.112602824919115,-26.394133733441183,16.21769790458458,False
0.73046875,6.756415196557197,-33.241157405994386,-30.276894991454036,31.13590278201685,False
0.734375,-4.542249591777561,-38.52146219936515,-30.77930426687828,14.946795167714566,False
0.73828125,-24.80576654164886,-31.253576933642634,-33.24962513735425,-11.180391679003113,False
0.7421875,-11.608766004608716,-31.78960711451593,-39.576444182257966,-4.251552055991332,False
0.74609375,2.992936366580311,-38.470044146220665,-42.90550113341969,14.79353784097836,False
0.75,11.21806947030277,-24.89924393007569,-34.64627001052985,33.551914353406175,False
0.75390625,9.125681763552286,-24.477254994353213,-31.28475587189427,11.440703024845858,False
0.7578125,-14.169902799185081,-34.18618519945672,-36.62109375,-31.204516103802955,False
0.76171875,-15.512505436939136,-35.20587995429156,-36.60785909552225,-24.192382037497712,False
0.765625,0.9969497771944817,-42.46008147280552,-34.698549665791724,8.429900672231717,False
0.76953125,3.944282405994384,-39.42976904910878,-39.024467594005614,26.75865898928702,False
0.7734375,9.115547118231488,-22.59459558711312,-33.67030234150845,12.979589301248398,False
0.77734375,-13.208839398806617,-41.0444771700647,-30.808603526355146,-15.169177441322793,False
0.78125,-16.4072574414754,-44.79356033871017,-37.12403953271884,-19.355275607373947,False
0.78515625,9.27734375,-27.884194865621758,-39.07367791763323,4.085096682131738,False
0.7890625,9.174334349438409,-34.73282652072397,-40.599831846691494,27.164437339763154,False
0.79296875,-4.022351504389708,-42.90682919765882,-49.750506797951466,4.112017589318376,False
0.796875,-18.5546875,-35.10283445760332,-42.84522655820768,-31.336800256394604,False
0.80078125,-18.41072470928458,-27.37459916943902,-24.953759032398363,-43.7327959994201,False
0.8046875,2.1588755474758883,-31.80105260346722,-32.278871961222684,-13.364992827493591,False
0.80859375,30.783001505173676,-40.516702372413164,-39.540139872413164,29.30042212586228,False
0.8125,33.28777392870224,-39.0770453088756,-38.0786648455622,29.352433310951042,False
0.81640625,-20.744352604993285,-41.08215190452936,-36.9984968257844,-28.527285091869125,False
0.8203125,-51.588802385385506,-49.78590859837617,-22.445914378700934,-55.28848446752335,False
0.82421875,-29.754396498443413,-47.297916777942255,-20.55395212733488,-6.697518617995361,False
0.828125,-25.906238316063362,-39.07811832346478,-26.285191301809913,10.500103486295934,False
0.83203125,-29.423736913192112,-41.142486913192116,-16.184641076170564,-19.856333652554788,False
0.8359375,-45.169145250885116,-56.62846416798926,-24.90234375,-59.80947552954462,False
0.83984375,-74.07836058029453,-55.089493118863956,-24.910561667251052,-88.17756727734923,False
0.84375,0.0,-44.84122007004639,-25.82391425230436,-63.92153568894213,False
0.84765625,0.0,-34.18713899020266,-18.44291514696008,6.384913701013307,False
0.8515625,0.0,-35.28117440746902,-4.084172640940724,10.783769353595629,False
0.85546875,0.0,-51.29665467433769,-26.97171199716152,-46.499087222256136,False
0.859375,0.0,-54.63635297124893,-41.484234315864974,-60.25966476162861,False
0.86328125,0.0,-48.283924354053475,-38.970632420944995,-24.67067768107869,False
0.8671875,0.0,-41.50798966663106,-27.836114666631058,3.3934682502136493,False
0.87109375,0.0,-42.00875961421072,-28.32859855710536,0.23969953683921377,False
0.875,0.0,-43.98734147030096,-29.292672102969902,-28.943086454963066,False
0.87890625,0.0,-48.776620299719205,-28.739920816292273,-44.28337170751435,False
0.8828125,0.0,-42.946991648608225,-21.013500431113417,-27.034781410236846,False
0.88671875,-0.035260124420590386,-40.61549406105148,-23.107889309892656,7.302181172237131,False
0.890625,-4.080555258820657,-50.29296875,-40.51518291798926,4.6963464091686,False
0.89453125,-24.931136308143085,-50.16957207224392,-38.96378265779514,-17.594577890367475,False
0.8984375,-28.207639090257004,-35.56941564350467,-27.314538375251818,-19.489519107502595,False
0.90234375,-15.04721144968563,-27.055794612608352,-24.036599812293982,-14.494996413746795,False
0.90625,-4.7272253845684284,-49.79172190704737,-36.53897832796667,3.1760337660999878,False
0.91015625,12.651495062877725,-48.20400969492095,-27.18162548264758,30.639029926057628,False
0.9140625,7.602367976284947,-33.198654105878404,-9.447237726620681,16.656167020205103,False
0.91796875,-15.15937128021609,-32.746557292302526,-27.967946431296546,-30.282498512086438,False
0.921875,-17.463365045632134,-36.164945287223006,-42.38866078650571,-30.96998571134241,False
0.92578125,-5.277503033054572,-39.59289707262544,-32.752280036778174,-1.333816746276401,False
0.9296875,4.2523568169332195,-43.93109505669332,-36.74431159199121,11.965334713786472,False
0.93359375,-10.392968416417592,-42.418130537467974,-49.14857260087532,-13.021389304013663,False
0.9375,-24.355553398928702,-36.18682090098889,-32.07803939728055,-45.72741089686851,False
0.94140625,-17.915906766986144,-41.93289982487333,-16.17712951552103,-26.93329686450766,False
0.9453125,-1.860130402270785,-35.59803395113539,-22.88412253158955,16.629460879318763,False
0.94921875,7.732441189262605,-30.837068218929314,-16.10857190819192,19.357004353100965,False
0.953125,-0.6552048199896221,-38.46929536314938,-15.777615835419082,1.3074586697240707,False
0.95703125,-17.631567087733487,-27.861181479672812,-31.215991398715055,-14.939939796728115,False
0.9609375,-22.914792865263703,-30.924012206613966,-27.743507546392383,-43.733839208048465,False
0.96484375,-19.466537308848665,-46.840154704764664,-18.998167656126,-22.526097307856663,False
0.96875,-13.026516336527896,-43.23408266313637,-14.673772566689049,18.519218406635332,False
0.97265625,1.650654109693566,-22.039302378372604,-17.27952888459895,14.588169847240874,False
0.9765625,-27.166661976909225,-28.44997634454551,-35.21330209160003,-37.49836653363653,False
0.98046875,-55.77319091975384,-40.42202351937607,-40.31143727722094,-73.27232574678588,False
0.984375,-20.85397892885484,-30.815011807929434,-20.490048147356855,-30.96577035770968,False
0.98828125,-5.546621053213893,-36.62109375,-18.653702901812967,-0.18902940346111585,False
0.9921875,-24.509834898281547,-36.589169617239484,-29.310556771183077,-20.84985677957695,False
0.99609375,-34.73771469829691,-33.263571488523986,-30.780317669545845,-57.147505169545845,False
1.0,-41.75201106778782,-39.57432795904041,-32.63949428107069,-58.67702785450494,False
1.00390625,-16.91815093515353,-42.00649523457054,-24.930959219141076,-16.8943047108693,False
1.0078125,0.32309661518740085,-43.471606364836404,-27.895190080957757,2.8130865813087533,False
1.01171875,-16.35426244315407,-44.897285082331216,-34.09116379639238,-9.08905949555915,False
1.015625,-40.049018298638664,-42.485446649319336,-25.306000711571333,-38.569240850680664,False
1.01953125,-40.84334654651447,-42.97888402667562,-17.17091596340496,-37.84778787312294,False
1.0234375,-24.02443898028324,-43.827400119033086,-24.94335675207545,-14.967540116438775,False
1.02734375,12.767800349655676,-32.66306671453166,-28.72057278970382,1.162959827686026,False
1.03125,19.056053566795875,-27.9608228066628,-20.503371411839215,18.19051827081553,False
1.03515625,-33.011908089020814,-42.04169822317014,-20.105049771839326,-21.866957860860143,False
1.0390625,-64.73485094158222,-47.26229865477353,-29.260154056281284,-62.86434806494933,False
1.04296875,-42.85250675283848,-36.714088347729216,-25.288330942497865,-49.51175451715297,False
1.046875,-30.780557267184545,-46.4526535601459,-14.752049344514987,-18.929937646892743,False
1.05078125,-32.87320281978696,-53.15067485464229,-25.390625,-7.612144331430839,False
1.0546875,-49.00788474964901,-45.88872075677573,-25.240015480023807,-36.878587445443166,False
1.05859375,-66.68796333213784,-44.9661395538276,-10.268661101275868,-62.160638420655026,False
1.0625,-46.17640789052008,-49.40653947549139,-11.75380180991332,-28.488120059363936,False
1.06640625,-25.90930833002686,-58.06999965663533,-15.080981603284092,2.395803129959712,False
1.0703125,-28.875243946874427,-54.59521511202002,-9.78100581466333,-2.23510660216104,False
1.07421875,-35.2812442859755,-45.888021309502044,-11.308590178734686,-29.183576607926494,False
1.078125,-46.83422544561104,-44.93546651812965,-18.577340030216092,-63.78815401431449,False
1.08203125,-42.26931043396313,-46.29491078650571,-20.99609375,-44.55923354419755,False
1.0859375,-20.108442431098158,-36.63981189338909,-20.977375606610913,-6.254065533054572,False
1.08984375,-29.396397103146747,-38.621610227688926,-19.028751306693323,3.2236636914753998,False
1.09375,-39.5459821973628,-43.4426340920884,-17.611718368460412,-16.846314184497285,False
1.09765625,-39.00384186912465,-42.01662838786473,-21.06941641359419,-41.35726092281162,False
1.1015625,-33.01016120971188,-44.32474238111952,-28.241147868086923,-26.53386243285313,False
1.10546875,-14.075025229305293,-33.696413957099686,-20.45773542900311,5.118174733685367,False
1.109375,-5.946020928076547,-34.1796875,-15.681065012284824,27.70461076753449,False
1.11328125,-14.263284874404835,-34.20546965610121,-21.03218876854169,15.17639048383897,False
1.1171875,-23.988377588746108,-36.746286427492215,-24.4140625,-26.949363258119163,False
1.12109375,-29.578533364446816,-48.265671432109116,-24.456446681651936,-35.34254395572996,False
1.125,-10.662635390596387,-41.41967460474911,-28.2875557490691,-7.61127995856733,False
1.12890625,-2.612025984753678,-32.79541418030035,-24.93551980953544,13.069847260164215,False
1.1328125,-20.159559653888415,-41.12185344432914,-28.387912419118546,1.0978727604993286,False
1.13671875,-34.16502296728116,-51.70404254669759,-35.12203275698938,-35.69830120330241,False
1.140625,-32.615881919220435,-46.287756919220435,-31.733333158461022,-40.80780515536292,False
1.14453125,-22.853511809837016,-36.57575888360701,-31.124069815575023,-20.32647303442803,False
1.1484375,-13.840070036854474,-32.26733705438896,-19.16019559386827,-2.965365235090343,False
1.15234375,-30.032680058070326,-36.18953670601611,-30.26312400799707,-6.708628470102558,False
1.15625,-53.23839379730802,-41.56161059012941,-29.149991225125138,-40.653244128464166,False
1.16015625,-54.48589248107679,-46.94397099331584,-15.725803759461604,-52.04448623107679,False
1.1640625,-35.950388884225625,-53.14754064350467,-24.99892095835114,-33.433867027730294,False
1.16796875,-19.422293203572735,-46.30500115267955,-33.5878972933941,-10.046888336788196,False
1.171875,-9.972180308417776,-39.07725395060127,-24.423898467067513,7.922096517900744,False
1.17578125,-30.517354566647334,-40.507432152722664,-25.450359791832,-29.63537215371467,False
1.1796875,-53.97627016313637,-38.599553816689046,-31.179061813270664,-62.21118023974484,False
1.18359375,-32.499525489103895,-41.031004875778294,-24.35254299688683,-34.18606597561348,False
1.1875,-12.34188164832733,-42.5323342878182,-18.622112699163665,11.085245244109029,False
1.19140625,-25.12392126266634,-47.35272993987303,-24.923446370253938,-2.921490860777072,False
1.1953125,-45.42082678397021,-46.445406686836165,-26.81812188110426,-47.03505800955317,False
1.19921875,-46.27341937686954,-51.74702208351138,-23.5831706225963,-61.31302437847201,False
1.203125,-36.05054804816262,-50.60575250274692,-36.54979789174094,-42.06914649081309,False
1.20703125,-28.791962023867658,-35.1839695435539,-30.129295873519716,-5.742952917073618,False
1.2109375,-27.43341180330871,-37.63688328894756,-17.622955901654354,4.187188329848605,False
1.21484375,-35.19605683117378,-40.873457745807926,-21.382014576981707,-14.013076410060975,False
1.21875,-38.349915202826445,-28.83467555781088,-12.705745223124351,-42.90615366125389,False
1.22265625,-17.45079393541692,-31.34549829843731,-13.666569538975706,-36.64779989088634,False
1.2265625,-5.891565437675498,-39.93712611402759,-13.18359375,5.462299990080576,False
1.23046875,-8.919262884591905,-30.72374363782736,-13.34634423073988,13.237873718026982,False
1.234375,-20.684263787999022,-27.321693589000123,-27.859601763749847,-25.732499370498108,False
1.23828125,-36.149533644014774,-25.41291985868636,-30.239995211970456,-55.43554019846478,False
1.2421875,-37.484982840257004,-27.456423409742996,-27.33811632951285,-35.20510495200232,False
1.24609375,-27.854922227902577,-37.08076127762178,-26.838300516573067,2.567306628464168,False
1.25,-29.90658573434257,-34.67953346279453,-25.355930861616407,12.900258286534001,False
1.25390625,-40.05074714989927,-35.67958519969782,-22.396671925553996,-11.133623271625664,False
1.2578125,-40.93851697938286,-38.58608152240264,-17.220334246429008,-43.46889402240264,False
1.26171875,-34.48840322353174,-39.52085366225529,-27.814074697353174,-44.00862200402513,False
1.265625,-19.73935521837993,-36.930062339763154,-26.09821850964473,-9.3733785557319,False
1.26953125,4.190658478055182,-21.54666945809425,-3.105244609174704,24.14223213740691,False
1.2734375,-13.515533192036505,-26.964207532736097,-18.36400712906721,0.381360741865576,False
1.27734375,-41.31791705454157,-36.03400573991271,-43.25360556746734,-49.73494155170309,False
1.28125,-25.70862479588878,-27.861390121398486,-26.20277782016848,-43.428596363386646,False
1.28515625,-11.706886503418595,-30.29716449316281,-12.707175996581405,-0.6799750854648678,False
1.2890625,-10.87464518984251,-32.184416871413745,-13.744124649005006,23.076251754974972,False
1.29296875,-21.636385400134294,-28.72954834193017,-19.56165208002686,-6.163395800268588,False
1.296875,-33.77123148579147,-22.602166763323364,-21.92967343072767,-30.28571830550638,False
1.30078125,-39.771196330194726,-33.747471262284826,-18.51731082514345,-30.782791564293127,False
1.3046875,-18.734804921178732,-38.02304692268954,-15.650156230924186,5.8301949643663775,False
1.30859375,4.667115732127607,-33.22215706775344,-17.685973383936197,40.60960755459315,False
1.3125,-12.1543939232084,-34.66191813995544,-25.89100747008912,9.21501948594494,False
1.31640625,-46.917771553763274,-34.17357727803382,-26.763815420507264,-34.69240963786473,False
1.3203125,-49.94126674958794,-33.78395940800318,-19.475718105198094,-36.20768964425249,False
1.32421875,-22.323233961054818,-41.03440275531071,-15.211829771242828,-3.587028159717983,False
1.328125,-11.86408386491271,-42.46151215892443,-21.109833296453424,20.800208975552437,False
1.33203125,-23.089553779912706,-40.958215215035715,-29.804292844988097,5.483021965234113,False
1.3359375,-33.74961729146319,-36.63402953699182,-31.22412842601636,-23.266145531299596,False
1.33984375,-37.99455242415456,-37.58460123916494,-29.283819989164936,-46.522514707453304,False
1.34375,-31.039199377327392,-36.647443827834074,-28.287374902707406,-20.250899241117757,False
1.34765625,-15.625,-38.54083607389207,-25.885582785221583,-1.785317440636064,False
1.3515625,-15.746250648577707,-36.058714881424734,-26.380659794286412,-25.205470371444267,False
1.35546875,-24.685395975505728,-30.904168824640507,-27.228433272910067,-47.23451685504509,False
1.359375,-43.91550653918935,-41.099081690269806,-19.102580671621293,-72.48565260270419,False
1.36328125,-41.12457243719859,-47.797371955314084,-23.96190827979061,-50.20923869498199,False
1.3671875,-10.687195502304359,-43.30427570084544,-26.7515949765749,-4.321208586405811,False
1.37109375,-6.724016117156025,-31.33637767442925,-18.715103181082895,1.0761442150683678,False
1.375,-36.23248971750809,-38.26660245673341,-31.281149130471277,-29.5772171742415,False
1.37890625,-43.75574658924429,-52.214499431540716,-33.634536476773285,-51.00413897494201,False
1.3828125,-29.003465121780003,-49.76641664631913,-29.309631951226958,-30.238683749694786,False
1.38671875,-6.8359375,-46.77198431109212,-30.202614213875833,9.315974633340456,False
1.390625,-7.11009272753632,-39.02986247291234,-24.882761233747406,11.743578365355267,False
1.39453125,-27.42279540806983,-36.68037780605238,-23.424325765321694,-22.816641836314247,False
1.3984375,-32.99041667938465,-40.98238932490385,-22.4609375,-48.61541667938465,False
1.40234375,-17.470523988360046,-38.50024305449753,-22.501287879364984,-32.94084753412761,False
1.40625,-9.77161599812294,-33.263034981229396,-25.40260699624588,-14.16614724812294,False
1.41015625,-10.344665400668417,-38.134342380356486,-26.42769360044561,-14.902563121871566,False
1.4140625,-17.65756273464685,-41.88219679048898,-31.16445167038032,-35.49844331847873,False
1.41796875,-23.876184131211087,-33.221723919545845,-24.401663220302773,-62.33880936393603,False
1.421875,-19.91938322167623,-34.68048725354047,-23.53764802832377,-49.28516960307044,False
1.42578125,-12.080646261293571,-35.524465510728895,-31.29423474604725,-9.157278010728893,False
1.4296875,-2.4670393762971554,-26.41845375259431,-34.62311077897998,-0.3716803313087535,False
1.43359375,-4.620907522356855,-30.415731156910024,-31.19825685203272,-28.611367707315956,False
1.4375,-21.543126135080275,-41.02215290389781,-27.38944532728466,-50.1362990564526,False
1.44140625,-25.548060085001833,-41.38480163060066,-30.675698747100476,-38.1044171957026,False
1.4453125,-1.3313130455683067,-32.64140186256257,-24.45412171132951,-3.746013154681968,False
1.44921875,8.112445046781666,-27.471549566469584,-27.40428663674875,7.644342675697915,False
1.453125,-5.669034134263216,-36.63933499801612,-31.689637921957026,-4.625587058204126,False
1.45703125,-29.33371516756196,-38.030677248657064,-27.83203125,-23.016759057196925,False
1.4609375,-32.1707623351749,-33.7348063781973,-27.900231451452903,-28.369912646511203,False
1.46484375,-27.71253915311012,-37.140820288655235,-33.30374992369674,-32.012734537144425,False
1.46875,-18.643568875137348,-39.54443258034733,-40.98388165173666,-15.580559312431326,False
1.47265625,-25.634154565502715,-39.05609132722361,-38.43963662169587,-12.424926124397167,False
1.4765625,-43.96480559837016,-38.55472565162984,-28.39828489348065,-29.165967220119644,False
1.48046875,-45.24622346554145,-37.188062736540104,-34.23870330240508,-55.50012971554145,False
1.484375,-33.01122251007264,-42.96213267276113,-38.494810823133506,-43.11954756081741,False
1.48828125,-19.136857526553534,-42.52741313827677,-32.66789936172323,-18.708933347195092,False
1.4921875,-26.21720390520083,-45.94579917172812,-29.31717285931205,-30.238475107969112,False
1.49609375,-50.361128705044194,-49.22779830844255,-30.782166736513258,-62.70447986513258,False
1.5,-54.94638057238569,-42.9005497985471,-32.288562683139006,-76.73923629128258,False
1.50390625,-36.95214855672384,-37.54105473042058,-37.05906253815163,-44.36214886193688,False
1.5078125,-24.934087098263337,-33.298355044790014,-33.11424362486265,-1.5156331072213405,False
1.51171875,-27.446288764422196,-40.46325702223613,-26.38641351832916,-5.774840134912399,False
1.515625,-35.195236196740325,-35.6120427527164,-27.812538151629838,-36.46419517229276,False
1.51953125,-37.9613485838115,-33.249026179648396,-26.419645991026737,-60.77942110624466,False
1.5234375,-28.735803150372384,-36.568155132089004,-30.332993445149867,-41.44294933917343,False
1.52734375,-23.444206341182394,-32.681312044088024,-34.55396094989928,-1.4178993617232327,False
1.53125,-24.12199389001648,-30.327565124832134,-26.421315124832134,1.459210423406788,False
1.53515625,-38.27706498763812,-34.261599280416334,-30.36900124381906,-34.10096515208168,False
1.5390625,-51.515788098217556,-40.04597748290807,-37.033310188011235,-62.780831762757906,False
1.54296875,-34.32663032709426,-40.4855472084197,-31.73828125,-47.7825565289294,False
1.546875,-10.639171811092119,-37.501079041648865,-31.725404288886516,-8.948981241606129,False
1.55078125,-3.105930146273349,-30.325657543340252,-30.826993804175313,15.135437093685143,False
1.5546875,-16.363591708887803,-34.23897155605238,-35.677466836695764,-21.608695662541205,False
1.55859375,-34.58155599475001,-38.43462891459618,-37.99287760973078,-66.27330729961541,False
1.5625,-27.976768995696496,-28.306840205713588,-31.175902381424734,-56.06805249282749,False
1.56640625,-3.370398436546209,-27.377728795324135,-25.974046876907583,-14.878479905536565,False
1.5703125,-0.30851052667724804,-29.8674257237806,-32.76969006585373,3.088890854877602,False
1.57421875,-22.333785271181785,-35.76259266077097,-36.55859065018008,-20.6237278815926,False
1.578125,-47.13213602391344,-43.88927729367599,-32.26858890474301,-62.401938388932976,False
1.58203125,-30.93916446645504,-39.968418060557966,-35.170378887888404,-54.97881143741225,False
1.5859375,-9.82285244475644,-35.05610197167623,-36.01835761048712,-8.036104318001465,False
1.58984375,-13.470131478658537,-28.42118426067073,-28.298697122713413,9.383753334603659,False
1.59375,0.0,-35.230347618575266,-26.80831571999756,-16.46356090144671,False
1.59765625,0.0,-40.39142856870345,-23.430704240935174,-41.50390625,False
1.6015625,0.0,-30.78228611844515,-23.079478750152617,-41.181684144359316,False
1.60546875,0.0,-32.30989996642656,-32.240452077737764,-18.28384073411366,False
1.609375,0.0,-38.16298590869552,-33.14008539288548,0.22911842075143452,False
1.61328125,0.0,-43.386386810557966,-28.780335974223185,-17.952540529042793,False
1.6171875,0.0,-38.43830356870345,-26.85546875,-43.43557095821634,False
1.62109375,0.0,-29.27523587245147,-26.84104266496765,-41.552191906513244,False
1.625,0.0,-27.882942938846835,-25.886179348406692,-11.836103231258775,False
1.62890625,0.0,-31.26472414464046,-26.403997861601148,12.268312305426688,False
1.6328125,0.0,-32.2265625,-28.80117206575815,-16.411698529636187,False
1.63671875,-0.7699155377073676,-32.29383667319773,-28.31283759186692,-67.44261176506465,False
1.640625,-50.02227101391772,-36.60684650073251,-27.746547754395067,-70.49834016565438,False
1.64453125,-31.62334946511415,-35.73791332521975,-22.03730537899829,-16.65884955667806,False
1.6484375,-24.041673900021365,-41.93424117498932,-26.44686369688969,11.8593532999359,False
1.65234375,-31.840932979031866,-37.93929217281162,-31.650294053686974,-11.736395128799902,False
1.65625,-38.759015707026,-28.482933822182883,-25.90108188484312,-45.16580698327432,False
1.66015625,-50.59495137277944,-39.15192334106587,-27.395913615621758,-60.707270666091816,False
1.6640625,-38.16700971340496,-44.72581138978757,-30.708932393404346,-39.188817661915515,False
1.66796875,-12.359041650134294,-32.19616041997314,-27.32854895998657,-16.044876569939568,False
1.671875,-22.26375903294976,-30.396007092820952,-26.420811696859165,-12.178385973078566,False
1.67578125,-40.511844650378464,-38.17118254791845,-29.86265174810768,-41.449599789403,False
1.6796875,-39.53516292653522,-43.44922208826761,-34.66796875,-67.89863445778904,False
1.68359375,-38.32260230495913,-42.819352735756986,-34.60506463873978,-38.9138771234903,False
1.6875,-22.805375183127822,-33.60055768144915,-30.64815803931144,0.12113142473446466,False
1.69140625,-14.0381530050058,-27.847292833541907,-23.490915542396678,7.072313198217447,False
1.6953125,-37.25605013314919,-28.924389907749358,-26.948105676199486,-40.11432255104688,False
1.69921875,-46.02108902873581,-36.272840903888415,-32.69150568268527,-74.71299244216213,False
1.703125,-23.280711075331176,-44.804283306498384,-31.226481661299676,-44.33391653249191,False
1.70703125,-13.727373699029423,-37.49458723751679,-29.801013021151263,-8.245282550970577,False
1.7109375,-17.313507679923088,-31.32987997497253,-30.76171875,-5.202332399890123,False
1.71484375,-31.043402274357486,-36.21329350695928,-30.729526347216286,-24.880852340363838,False
1.71875,-47.65627384476865,-41.072584191109144,-28.79231969539739,-52.55536039937126,False
1.72265625,-35.813143570305826,-44.351627357770724,-27.93858755989806,-41.48399586817849,False
1.7265625,-17.31277613927721,-39.476470453574265,-34.196201010316834,-11.652695958732679,False
1.73046875,-30.398393705825008,-35.15625,-35.02296338045333,-8.237351099805021,False
1.734375,-37.68027837336711,-35.12620559150287,-27.358772204248567,-33.24813200082408,False
1.73828125,-42.94603647136927,-33.165269118948785,-28.327883676210245,-67.0875366278005,False
1.7421875,-41.17452057708155,-30.845980201211695,-28.75497282650165,-47.56617042523806,False
1.74609375,-20.415175573800514,-36.1868507069497,-25.506421157749358,1.0691994261994873,False
1.75,-14.91295174287284,-39.644139218072766,-32.82376137941823,6.439166135690739,False
1.75390625,-31.40737547308021,-45.36294360807594,-39.40914332422781,-18.562138990202662,False
1.7578125,-40.85705728848736,-42.39325650866805,-30.698291665394947,-48.899480470180684,False
1.76171875,-30.986379990537817,-37.22121379189305,-26.967307541893046,-52.67145077566998,False
1.765625,-14.934783365507874,-43.89684800772189,-33.634864342342205,-18.99814058494079,False
1.76953125,-3.2144834555457207,-40.84474742667257,-30.2734375,12.272187080332072,False
1.7734375,-20.363811113103594,-30.74532447080459,-30.28983177919541,-13.408463645000305,False
1.77734375,-40.535615668799515,-30.000226138787326,-31.109377380408286,-55.026886711608775,False
1.78125,-40.67760477077101,-42.58563059909346,-22.979264992598132,-45.748236094789696,False
1.78515625,-18.693344829691124,-49.03518700975156,-24.925145310020145,-4.441982339610548,False
1.7890625,3.080922945153217,-31.119777757218287,-26.466769215068368,22.832349577661457,False
1.79296875,-18.76894582519382,-23.0264209011202,-32.83836719179232,-16.078584993666443,False
1.796875,-62.554664132126724,-27.82422208826761,-40.55077123519717,-74.70703125,False
1.80078125,-65.2491229894091,-27.265062263459896,-41.92923731076792,-74.04605426306311,False
1.8046875,-24.28720833078989,-22.397510415394947,-38.07800911442437,-33.5169817673361,False
1.80859375,-16.77730917297479,-18.53072204459435,-37.5497253391887,-23.132953908110004,False
1.8125,-27.618382122909292,-17.17061790379685,-34.65181391924063,-34.591635684363936,False
1.81640625,-44.181286291737884,-21.915697058890856,-33.91110598713527,-59.464471533161394,False
1.8203125,-57.44150044258592,-18.398941847643613,-46.72745148724132,-81.22793031942494,False
1.82421875,-18.240297110227342,-9.360078063098069,-37.92046887380386,-33.45989897604681,False
1.828125,0.0,-14.4185739302283,-28.631933820275304,8.080366169805274,False
1.83203125,0.0,-30.784700548653927,-48.33218315044869,-6.3802957694890425,False
1.8359375,0.0,-32.164566101513856,-47.70432105359541,-39.24848919545843,False
1.83984375,0.0,-28.398404117323892,-38.636692043859114,-50.31270029605665,False
1.84375,0.0,-33.218863508027596,-42.401776209862035,-21.208951109517123,False
1.84765625,0.0,-34.10010558463558,-37.51807433463558,-4.4820713569008666,False
1.8515625,0.0,-29.288857196541937,-32.8030395880387,-10.310835635148333,False
1.85546875,0.0,-28.92168446866797,-38.11017122542885,-43.42919078314816,False
1.859375,0.0,-35.636364416737884,-39.63244958262117,-70.51494208582591,False
1.86328125,0.0,-35.03285332224392,-44.46649953073495,-53.17621856305701,False
1.8671875,0.0,-27.790598435306148,-46.27070686885721,-21.8317846800409,False
1.87109375,-0.2509119742456568,-25.40735246494971,-39.48387139020116,-14.00642429899421,False
1.875,-14.857688118094133,-26.38268754578475,-35.72203147892375,-33.513125915695014,False
1.87890625,-27.7849974438408,-27.3986227738524,-40.5351827176932,-52.577595646136004,False
1.8828125,-24.70487925962947,-30.666935794622145,-40.95243636308143,-42.43164658619216,False
1.88671875,-12.719188532064587,-24.942137136774313,-37.06162293587082,-9.606451452902753,False
1.890625,-14.28891800070199,-27.383988047094373,-33.954354436271515,-0.28971393907947746,False
1.89453125,-22.207765668874373,-29.65544070855207,-20.556455828042974,-18.113201608472714,False
1.8984375,-36.14914616652423,-22.095158748931755,-23.731505997436212,-49.88635583262117,False
1.90234375,-36.74738931536536,-29.44496005280508,-41.00739805262194,-54.078705894023564,False
1.90625,-15.64163172613234,-38.09425336306617,-40.51071202386766,-18.371738512544255,False
1.91015625,-16.81932484968258,-38.50721495009767,-39.50052840007325,-8.021886874694786,False
1.9140625,-29.40653782392711,-34.676404351840546,-36.56204453711617,-20.4328757401868,False
1.91796875,-35.023001196500424,-35.09665122774662,-33.14352622774662,-43.87719961742471,False
1.921875,0.0,-31.65840127502747,-29.70527627502747,-39.6476506226346,False
1.92578125,0.0,-26.919849625350995,-24.982819844188743,-15.839662529758272,False
1.9296875,0.0,-30.777934182513278,-29.91487971010622,0.2855883435840303,False
1.93359375,0.0,-31.926803952127337,-37.573066332331216,-12.390874416280063,False
1.9375,0.0,-43.010031255722744,-36.174093755722744,-51.81560625801184,False
1.94140625,0.0,-45.36857439640437,-38.61580060359563,-54.593635299661194,False
1.9453125,0.0,-43.06961337138323,-40.88114050482237,-20.306860712214625,False
1.94921875,0.0,-48.701151606946645,-33.10154628555732,18.560469856397265,False
1.953125,0.0,-41.427181023365485,-27.326699949636776,-9.760915370703865,False
1.95703125,0.0,-37.08353323197717,-26.255206505234405,-64.39282754128007,False
1.9609375,0.0,-35.583816507828715,-19.915448834849226,-60.263211670965084,False
1.96484375,-0.3838601057991341,-32.29635524650893,-14.430603142722116,-17.360022667159583,False
1.96875,-21.716384598950068,-36.14938461421072,-29.52059854184471,-5.661105748687584,False
1.97265625,-35.440020068982356,-37.12606735699896,-42.438737857502595,-22.91997731747146,False
1.9765625,-51.597545848721154,-38.052197152362346,-39.81975024035527,-49.40075711909413,False
1.98046875,-42.08971260377243,-36.149801897662066,-27.36073939766207,-53.65555802481382,False
1.984375,-19.848434590760636,-37.24625232739149,-28.363086664809842,-22.521477101901592,False
1.98828125,-10.487286923147357,-44.930518728635086,-30.78764993590526,1.3351878204736907,False
1.9921875,-23.785633622268342,-45.34052952554633,-32.261375862226835,-6.251025325051886,False
1.99609375,-43.030094411971184,-41.28481906438862,-34.21474144969782,-28.129989822431476,False
2.0,-46.121147639177146,-29.358841592525334,-36.23904094432914,-44.23884160206324,False
2.00390625,-31.658073409458552,-32.93764330705958,-41.92980362402332,-33.29036704729276,False
2.0078125,-27.5142206958519,-44.859070006791406,-38.62805160132165,-11.84435998641719,False
2.01171875,-36.829293682918646,-41.3319150010672,-41.531062762989386,-19.179287298755945,False
2.015625,-47.8515625,-32.243851012606065,-42.70942231090898,-52.6264410273335,False
2.01953125,-47.5808349579569,-33.37778793035039,-28.154382716167135,-73.0929490542211,False
2.0234375,-32.521403064338905,-42.986335516878285,-19.227616677221953,-37.14511234701197,False
2.02734375,-21.848715499282704,-43.803665927751666,-29.39425701842073,14.045068410048227,False
2.03125,-15.10989338527042,-36.097045347027226,-34.5249001381089,7.123982305274081,False
2.03515625,-14.040932406757417,-34.37771830362593,-26.864470150164816,-30.316238859724088,False
2.0390625,-33.76389877182407,-44.90375186954398,-27.38905782614004,-58.28565678224773,False
2.04296875,-37.158435611494326,-43.80805605046697,-29.73940410015566,-41.168648802801854,False
2.046875,-14.206206459452448,-36.51978328920462,-27.316119874328532,2.137325837809791,False
2.05078125,-16.96310106792931,-31.185108462166536,-25.795474272785544,11.22742835640376,False
2.0546875,-35.94402154422537,-28.009853612196313,-21.55924757355634,-14.871445698785251,False
2.05859375,-51.06272417981601,-37.165776928232,-25.503428856463994,-51.05332385844401,False
2.0625,-40.007348957697474,-39.82594988020388,-31.23295099041631,-39.28038157352582,False
2.06640625,-10.656341092576765,-27.789108046288383,-30.17042181109212,3.6325847685580857,False
2.0703125,-6.249684056815407,-25.63348396868514,-24.474777242171285,15.139282062629716,False
2.07421875,-27.989227887315344,-38.95770224178977,-27.884430129105116,-12.199073058463558,False
2.078125,-36.427653064338905,-33.04485534809547,-30.700169440926015,-38.37198530589977,False
2.08203125,-25.737259677751663,-24.644238179903546,-27.36145582153104,-26.786016621772177,False
2.0859375,-18.084289826486387,-37.18985109418875,-28.302428923513613,3.5431537854047126,False
2.08984375,-19.141984151812967,-41.42289364851666,-27.442765401812967,9.839841842418508,False
2.09375,-24.69497102206825,-37.14562126091203,-32.80545940228008,-12.696355772312435,False
2.09765625,-39.51417953012453,-38.99844699021792,-37.51530238028018,-38.65657261971982,False
2.1015625,-37.284514825723356,-35.515590663533146,-33.332065586466854,-42.55429811492797,False
2.10546875,-20.838788103253915,-28.854860116690023,-39.93727649328194,-20.55193662977576,False
2.109375,-12.712242285740446,-31.30078935722134,-34.42248685676352,2.297503071206202,False
2.11328125,-14.038428706049322,-34.137064976040776,-20.60158205271029,-6.643629440849713,False
2.1171875,-34.71089195371162,-31.764035172226972,-25.861736968515352,-51.00445065930041,False
2.12109375,-36.74508654697229,-33.28986034595898,-24.893670215404104,-62.591861971218414,False
2.125,-16.400700130097057,-38.07720435348248,-24.53632655124527,-13.182818795018923,False
2.12890625,-5.379887045204811,-37.50972329795189,-31.162067047951897,13.197037058940236,False
2.1328125,-6.1436046422903186,-32.67931504471371,-26.420480557929434,-13.41476878204737,False
2.13671875,-21.6274436118911,-30.797485902972774,-29.314758576486387,-52.12985050283848,False
2.140625,-29.062824308650267,-32.93089054201514,-30.174416053659726,-45.15127567761431,False
2.14453125,-16.374292048818827,-44.188141662724334,-24.847798841716518,-5.2074590251495545,False
2.1484375,-4.486035549688682,-30.92973495108961,-21.945204960093395,3.1251549909962155,False
2.15234375,-9.718671446526509,-14.445180387340036,-20.719282021252287,-12.89660577582267,False
2.15625,-32.80762970600354,-29.406531129822366,-31.780456684547065,-49.00526182509767,False
2.16015625,-38.03496619559245,-35.61904559779623,-34.171192282598746,-58.67426081473964,False
2.1640625,-35.09616118300574,-34.256944550421196,-33.88025681769625,-35.163820714045904,False
2.16796875,-31.608625320473692,-38.66929976498596,-44.41630629272983,-8.30078125,False
2.171875,-24.675178655912337,-43.9453125,-43.28295381272511,-9.0232026146908,False
2.17578125,-39.194391376587106,-43.901348707804296,-33.60347866560859,-49.074322236295934,False
2.1796875,-46.19196660206324,-41.46849676855695,-28.86170797216457,-62.1990194077341,False
2.18359375,-35.4751932498016,-39.53295619734754,-31.67589356571638,-45.31912328879495,False
2.1875,-26.33118189934074,-38.84426075494445,-28.3203125,-14.133152049505554,False
2.19140625,-24.55903869338298,-53.412937503815165,-28.555898814247346,-13.193668164753998,False
2.1953125,-32.25392604236615,-63.17556353397229,-40.96089791526769,-39.733204865774375,False
2.19921875,-33.57186542959227,-47.105808713737204,-37.911223993250246,-49.00376102739517,False
2.203125,-27.156855217172335,-33.60645407598742,-28.868060271808805,-32.33255896694341,False
2.20703125,-16.567226033146135,-28.782841399859603,-32.132137216151875,-10.7421875,False
2.2109375,-14.83859952997192,-27.56848694451227,-26.803606378189475,-10.984211901782444,False
2.21484375,-26.026007646053355,-40.09998960304621,-24.19560127777608,-25.084260633508332,False
2.21875,-61.04394900843914,-43.33393263185203,-39.044914483121715,-62.02051150843914,False
2.22265625,-60.93032868582896,-36.53257004639238,-37.94429957422781,-61.720991408252964,False
2.2265625,-28.64816827612783,-31.69371861836884,-30.362562763262318,-19.26387421021305,False
2.23046875,-20.262569054450005,-29.49490580362593,-35.15625,-5.179858705438896,False
2.234375,-33.538382447198146,-40.2384047659016,-35.346531253815165,-21.847828886125015,False
2.23828125,-50.98677464554972,-50.61706874580307,-45.44664097315488,-66.7029864534369,False
2.2421875,-35.617050154132585,-41.88166699731413,-46.97645949059944,-55.71962081095104,False
2.24609375,-8.733522554099359,-36.15132581530021,-26.873982065300215,-7.682906792898507,False
2.25,-6.0581807586070076,-36.97971907047369,-28.048124465877184,-1.2877367308631424,False
2.25390625,-17.35966377777608,-29.889602712364933,-40.00424701254502,-19.007288836914718,False
2.2578125,-32.07708560653461,-35.741251592830544,-38.156279567513124,-43.9453125,False
2.26171875,-23.509719843044195,-40.87398707422781,-42.07185883324686,-43.14859916753144,False
2.265625,-0.9409123946950736,-33.22095005265246,-46.2173807498016,0.3030258950918748,False
2.26953125,0.7875330965388841,-34.23369590098889,-37.01936099835185,16.043475689781467,False
2.2734375,-9.639784233457453,-37.127497024172875,-32.31717262086436,-14.297084833964107,False
2.27734375,-28.918047919464623,-37.994725692112816,-37.03640555369025,-47.144372911070754,False
2.28125,-34.24430682303748,-32.92682374328531,-33.03734424597119,-34.88009777308937,False
2.28515625,-12.132874019503113,-18.804968152926993,-24.534567999557442,5.105284191490661,False
2.2890625,-8.832581859318722,-32.01817630753617,-30.95764529027532,15.920484526661987,False
2.29296875,-36.42441788468573,-46.11392661593916,-41.10028462781199,-19.579146392809243,False
2.296875,-51.216417027835426,-32.33279094432914,-45.39245150927847,-46.77762392603162,False
2.30078125,-47.90315661816323,-38.10376146456477,-44.26426608663472,-41.120691011857524,False
2.3046875,-24.135926101504793,-38.97277858113058,-35.05755643924363,-20.005372554331238,False
2.30859375,-9.621662209284581,-34.224992560432185,-29.83952232251862,6.700022318703455,False
2.3125,-27.98708185813698,-36.63933499801612,-32.75132624603223,-1.144966178580149,False
2.31640625,-36.24298205619315,-37.76291058428973,-34.640426360951714,-36.05766708572431,False
2.3203125,-41.834603385194114,-46.42379736524844,-33.27728223049689,-56.986851040776465,False
2.32421875,-33.43951607518923,-48.153258435325355,-37.11870426573373,-23.88229435317727,False
2.328125,-20.723769868674072,-38.52727149594042,-37.59765625,3.061169619147183,False
2.33203125,-31.937325456293493,-36.15176909107557,-37.730352387528995,-15.913938984098401,False
2.3359375,-41.9921875,-37.07122337016237,-44.31913886048712,-55.42376684394457,False
2.33984375,-41.16765646914446,-35.14666242987377,-37.81680071002805,-67.00821243863955,False
2.34375,0.0,-34.71372089984434,0.0,-23.40420674177451,False
2.34765625,0.0,-37.100164395870216,0.0,3.8049333545723703,False
2.3515625,0.0,-36.518799692497865,0.0,-1.8833194397814674,False
2.35546875,0.0,-31.334231645250885,0.0,-23.87737636964351,False
2.359375,0.0,-35.7764008702918,0.0,-46.122979509416396,False
2.36328125,0.0,-42.59456596798315,0.0,-32.08730905109266,False
2.3671875,0.0,-48.320708323159565,0.0,-0.5265521036808692,False
2.37109375,0.0,-47.04556011919297,0.0,-3.250150946599719,False
2.375,0.0,-31.40546789158833,0.0,-44.07890281635331,False
2.37890625,0.0,-39.287356168355515,0.0,-74.48217508164448,False
2.3828125,0.0,-50.22411277737928,0.0,-62.43388634317197,False
2.38671875,-0.3370927019817073,-46.765940596417686,-0.4957245617378049,-11.143709508384147,False
2.390625,-16.941728889414566,-41.44721185176424,-24.47075689823576,15.855086256562481,False
2.39453125,-34.48490053870101,-38.66005991713466,-27.42959116713466,-22.640309772158467,False
2.3984375,-49.48796936042608,-42.978347519381025,-31.78626884690514,-55.54770002899524,False
2.40234375,-33.27612425409011,-43.47634669167023,-34.16037205832977,-25.052604770771016,False
2.40625,-12.724552147555244,-44.42384720081492,-33.173885352444756,-8.213062307334269,False
2.41015625,-14.434728760987669,-44.01395562774692,-31.708862766679893,-4.0925670610273475,False
2.4140625,-28.157621634820828,-47.3435484994048,-30.194506497619194,-13.97290377380807,False
2.41796875,-43.82585020907093,-46.22743569542791,-26.38709788182151,-52.08681069542791,False
2.421875,-37.5651677527164,-38.534159538670494,-27.403838816994263,-43.53226149508607,False
2.42578125,-12.433361726237715,-36.74199410712105,-30.313737619040353,0.005395208244307392,False
2.4296875,-0.2744234811836162,-42.44997725209071,-32.19607100209071,23.071602025088513,False
2.43359375,-13.469640665029889,-40.94411327124253,-30.659559137489325,4.888858681148591,False
2.4375,-26.567632586451595,-37.548029325250276,-25.749876245650714,-40.45786605535039,False
2.44140625,-12.625417521899035,-35.196189987486264,-19.521265003128434,-36.39045522524722,False
2.4453125,-9.397886413756792,-37.14955588791893,-19.04296875,-1.5613613427904278,False
2.44921875,-15.187388883378098,-38.95102570656818,-18.992298616621902,16.714884763002075,False
2.453125,-17.955289628097912,-33.762761720180684,-16.948146212306188,-2.0163136369185692,False
2.45703125,-35.75732389086441,-37.12988275288444,-33.26464825865332,-50.8837887644222,False
2.4609375,-40.488148911534,-37.87908413197412,-36.01904314758576,-54.78493568589,False
2.46484375,-15.884431082895862,-28.330714780322914,-30.66809822709376,-13.577628551916739,False
2.46875,-5.726819800760027,-28.9655317135706,-26.293949783667053,12.93249300828704,False
2.47265625,-22.236439003174215,-36.111709879746066,-23.128591022158467,0.5152258385728239,False
2.4765625,-34.19029842204859,-35.12441723385423,-31.18633446770846,-42.61841073663167,False
2.48046875,-34.44428351220218,-33.64879953803851,-28.384222567942235,-48.263586066510264,False
2.484375,-24.433794046056647,-31.807341661198265,-31.48677855267977,-22.633514013093638,False
2.48828125,-25.608983468898792,-35.23565307959956,-42.90919769030033,-7.492950294149066,False
2.4921875,-36.2226829577712,-39.02255757432391,-39.92922082939076,-16.383906087845673,False
2.49609375,-40.68853438606397,-37.210119147539984,-34.58737343196801,-53.01645861311195,False
2.5,-47.934482682975215,-41.97191944664876,-30.76171875,-65.35231122573556,False
2.50390625,-28.3600462712136,-40.99523647823698,-30.822884315289055,-14.982761564464928,False
2.5078125,-7.601861274951166,-40.18302529071542,-33.927916549032474,14.468320078821268,False
2.51171875,-20.756036541631058,-46.84397199479612,-44.69433629517153,-17.284178614485413,False
2.515625,-32.20575666931201,-45.26451543518405,-34.065255431216045,-48.963362899471946,False
2.51953125,-30.914265657428885,-38.79454441231229,-29.102361299749724,-54.378412186393604,False
2.5234375,-15.181844974667317,-48.923086791142715,-42.30109647784153,-17.158993579080697,False
2.52734375,4.755690950850143,-52.93663276441282,-34.08434633813761,23.58679045226705,False
2.53125,-1.6375692928976926,-39.98973363485838,-29.903545526339887,7.0971569405445,False
2.53515625,-34.11819780284764,-37.46862624565071,-35.60482971020022,-52.023860506195824,False
2.5390625,-54.218176498305965,-31.10021590371467,-33.7812767077712,-87.6998850135065,False
2.54296875,-31.284932586070077,-23.905632420492005,-38.16653281803199,-54.17841418935417,False
2.546875,-9.78589305335124,-22.91881666997314,-41.951651393297524,-6.785267366621902,False
2.55078125,-11.119375152615836,-21.504763521763017,-40.0390625,-5.169295076994689,False
2.5546875,-29.199349896227567,-22.471220556479672,-39.97736416112196,-41.91522850918691,False
2.55859375,-46.949574513948235,-23.00093209200647,-37.202459015611645,-60.58007884034306,False
2.5625,-27.5615554510561,-25.380222084656005,-41.87841120238386,-39.03063548280019,False
2.56640625,-15.241635732053473,-24.90234375,-59.06104785358931,-14.874426294866316,False
2.5703125,-20.125044351269686,-25.050062091777562,-57.82058337657185,-3.499458246856306,False
2.57421875,-25.093049317745475,-31.685307481181813,-44.76295369354544,-30.027913009690984,False
2.578125,-33.69140625,-29.30680099085831,-37.73662012201636,-62.978355259141686,False
2.58203125,-33.150606897051645,-29.805185855664753,-44.37350493300574,-61.40838649127091,False
2.5859375,-7.092507210658039,-30.630751358198022,-41.30241795492003,-8.6829532795141,False
2.58984375,3.6832878029424334,-24.170831012300837,-31.839627703207984,18.842094118185702,False
2.59375,-7.2142049486479065,-12.910004835719082,-36.86645641939324,-14.438633341853864,False
2.59765625,-25.077155710154436,-23.16516293607313,-48.380975975918695,-50.190138185203274,False
2.6015625,-32.779049708885296,-33.01694560390086,-50.37571514826628,-44.706811864736586,False
2.60546875,-12.818470730069588,-24.580975880539615,-54.05316954202784,-11.695859022097425,False
2.609375,3.5705156574288854,-32.320987783848125,-47.18492238050909,11.173181693321938,False
2.61328125,-11.97199690189854,-36.399502710838775,-39.18912345094927,-14.315544208992126,False
2.6171875,-23.25660762384019,-26.313983859952998,-44.868671359953,-43.680486538197414,False
2.62109375,-15.00863523145893,-24.128580154356694,-42.33103797836875,-53.08119353383974,False
2.625,-9.143813045568306,-33.298504074594064,-35.6540691574594,-24.263303950219754,False
2.62890625,-2.5277839244292517,-38.009157344951774,-36.33436040700159,7.4477942635209375,False
2.6328125,-7.251219495909895,-34.1120834541542,-46.232195216638175,-11.650013258500703,False
2.63671875,-27.9879760369613,-30.888423889406056,-38.447513610593944,-56.88428872962703,False
2.640625,-35.262090966838606,-37.14859964442681,-32.324624111067024,-67.99452023371688,False
2.64453125,-16.177308362203163,-38.78624149166718,-36.931780244643186,-25.646942103275137,False
2.6484375,3.9664580408375048,-25.510087290929068,-28.310357309089245,8.90900168630204,False
2.65234375,-17.11231744445123,-31.540429282138934,-27.83203125,-9.540172712428275,False
2.65625,-41.55427832376999,-45.35978417623001,-27.842105664753998,-45.61164454507997,False
2.66015625,-43.63113849505525,-42.9484807093584,-28.360851081283194,-54.59810646671448,False
2.6640625,-28.573454525164816,-42.145539168370775,-30.2734375,-26.771237104749115,False
2.66796875,-17.619209575635633,-49.27532167436437,-30.37614893908908,-0.3184054611761478,False
2.671875,-19.873422430106213,-47.441492091167135,-35.19535542058357,-15.87972174108778,False
2.67578125,-36.689945519472595,-51.24002334879746,-37.109375,-52.50182889375534,False
2.6796875,-39.54428355054328,-49.408864340434626,-37.00052363111952,-64.23882014177146,False
2.68359375,-15.455751423142665,-30.313260694554668,-31.638723263613333,-29.586487393931993,False
2.6875,-7.625557013795629,-32.306919370345504,-26.9358256203455,3.2472104005158102,False
2.69140625,-22.316199754303504,-36.04187451356672,-30.68088498428153,-5.580003729321817,False
2.6953125,-38.909645702338075,-32.094037108540384,-27.079086718225383,-39.02145468645077,False
2.69921875,-54.12357122146258,-48.715339244292515,-37.72069525622634,-59.412638967311686,False
2.703125,-27.29576240309486,-43.12701965190453,-43.17858396410695,-28.533723179404223,False
2.70703125,-2.545137325636408,-28.008374078581895,-30.325303037818205,6.877429930254563,False
2.7109375,-7.679923086314247,-36.42574548284703,-32.98685294835796,7.889339766969845,False
2.71484375,-23.410761993871578,-49.62600734991463,-45.26300789110616,-33.56048530017074,False
2.71875,0.0,-41.42331093196801,-38.271986307380054,-49.56290154590404,False
2.72265625,0.0,-37.688862490080574,-24.067657623458675,-37.55896811286778,False
2.7265625,0.0,-41.83927358677737,-30.86366135881509,-12.501621543251328,False
2.73046875,0.0,-34.80164848423575,-35.65481430647967,-3.9732537999023316,False
2.734375,0.0,-41.29487704683494,-36.21555384721035,-30.29194700166341,False
2.73828125,0.0,-54.001563358464075,-39.820601277776085,-53.222000478832186,False
2.7421875,0.0,-44.73302443230375,-29.606797380509096,-29.785990816902697,False
2.74609375,0.0,-36.34383870253937,-21.62154203165059,14.437411297460628,False
2.75,0.0,-45.95149534903241,-27.980593227290765,4.320399300256395,False
2.75390625,0.0,-48.436146809379196,-34.764271809379196,-21.488309386827005,False
2.7578125,0.0,-52.71285509629471,-39.09477985555793,-43.30639192406299,False
2.76171875,-0.1836971038072304,-51.41202971636286,-40.235589526306164,-35.64857967102054,False
2.765625,-8.28027349711556,-36.11230474711556,-27.323242247115562,7.683104425477688,False
2.76953125,-7.6551841388414115,-35.373446036427175,-26.59472620482847,23.638362369902943,False
2.7734375,-23.3549076825937,-45.43096081064583,-37.00535219677084,-13.070420516801978,False
2.77734375,-41.82478700552469,-46.2297807864294,-32.18471237638117,-52.76576259271412,False
2.78125,-34.02141784809547,-39.21021834177756,-30.463361082285434,-53.56614014238188,False
2.78515625,-26.66447215312538,-45.95149211024295,-39.21105290868026,-24.382408569619095,False
2.7890625,-18.247816401242293,-48.14776241339052,-45.79172564632806,-1.4994505829924911,False
2.79296875,-26.88366518892687,-39.57230115370529,-40.81118591479978,-25.569460764863877,False
2.796875,-49.73977011735441,-40.62471982396838,-31.71664212245147,-55.013487793386034,False
2.80078125,-46.472445926301816,-44.834836281362556,-30.87051714829681,-46.8941365949881,False
2.8046875,-28.457598755493834,-40.99368781284336,-35.54581390779514,-4.466005944023928,False
2.80859375,-13.40398296927417,-40.01702357807258,-31.16184431229033,12.735220818084782,False
2.8125,-23.462866421082353,-39.0625,-27.514965890360784,-28.57039977718088,False
2.81640625,-46.483826570321085,-39.213556609388355,-35.231778304694174,-61.54501701562691,False
2.8203125,-50.29302836192162,-45.8116425421194,-38.433176943444025,-61.68629726986937,False
2.82421875,-28.394027140818633,-41.9921875,-32.084737081069534,-25.257056336227947,False
2.828125,-10.297899848156513,-42.08017469631303,-25.790919053686974,1.777150607373947,False
2.83203125,-12.726757788655231,-45.8320894312355,-21.928424204157,-6.356985515733732,False
2.8359375,-35.50091736424822,-42.957631697927475,-20.108477666580185,-28.34347314533606,False
2.83984375,-49.77744485181907,-42.45805466747039,-23.92578125,-49.74382372802466,False
2.84375,-27.651764799017215,-41.58277282230497,-23.993381169118546,-25.815121493865217,False
2.84765625,-20.234743424165192,-44.77462456504487,-26.90077657614004,-2.4753871196050303,False
2.8515625,-29.662176855695275,-38.52855601803809,-28.80859375,-4.728179175314369,False
2.85546875,-45.0707811452748,-36.609639431132706,-28.785685112265416,-39.394675247151476,False
2.859375,-50.854517524113305,-35.983833213784266,-27.874596760347355,-52.4458356861608,False
2.86328125,-31.88319783146136,-29.318335291783665,-29.667124645189844,-17.127458872543034,False
2.8671875,-16.623142015626907,-30.4137043515749,-24.478801046880722,2.5520459765291172,False
2.87109375,-17.871075865331786,-36.6644938781973,-27.27864980770405,-14.605007564022342,False
2.875,-30.94767813949762,-38.563279962382495,-24.40312371238249,-34.44221840282017,False
2.87890625,-38.963514404147844,-38.030945502304355,-24.04676364493041,-45.3155223244262,False
2.8828125,-34.47997107929919,-35.57817913092912,-29.3853444920945,-19.411303491850315,False
2.88671875,-25.954732614302284,-32.79287575540227,-32.94673412510682,6.925116934745453,False
2.890625,-8.681820653003296,-36.36816036656086,-22.140761868972042,10.237870643083873,False
2.89453125,-25.55584952650937,-46.251510658308405,-29.74756863897198,-12.33466816548135,False
2.8984375,-52.89333018900317,-40.49327553679343,-48.69185214717373,-58.74134911793432,False
2.90234375,-38.51544883905174,-39.085293798372845,-42.82059031057651,-43.51044491589981,False
2.90625,-15.432930388536198,-39.90034555838725,-36.386342002655354,-4.498673277072396,False
2.91015625,-7.2651433356733,-33.637755520540836,-25.92182683356733,11.869091266328898,False
2.9140625,-26.669319161681216,-31.29316166595446,-27.842821666488614,-25.668463320691654,False
2.91796875,-39.61477464786046,-33.257520878479426,-28.276795797216458,-59.1133871207728,False
2.921875,-20.87576708620742,-35.633592462382495,-26.55314688949762,-38.35147880486204,False
2.92578125,-15.603001858097796,-35.057258361440084,-34.73396317570661,-7.192229898586778,False
2.9296875,-14.703876587107802,-30.595401488676597,-37.564392797735316,-1.864005177176169,False
2.93359375,-17.413119200952266,-23.526679434745454,-36.14395992934318,-19.678372222561347,False
2.9375,-31.429323606617423,-27.57911223368537,-36.587470573759234,-46.98707725413589,False
2.94140625,-38.90434957193872,-37.68802792317788,-35.1223606225583,-51.2381753792272,False
2.9453125,-31.806387870452326,-41.46983803679343,-33.52106518396716,-28.853988228314613,False
2.94921875,-13.829585736544557,-39.982067583886995,-26.332990550332195,-10.687067612458856,False
2.953125,0.0,-37.44701692406299,-24.762464375915638,-29.540270475979735,False
2.95703125,0.0,-30.588605729611768,-18.403213607160296,-61.87106442093456,False
2.9609375,0.0,-23.19943979100537,-11.71875,-55.06570783672628,False
2.96484375,0.0,-34.25626368773274,-11.80626564312313,-28.917988303903915,False
2.96875,0.0,-37.56457163350019,-15.878648726498596,-34.47440884049566,False
2.97265625,0.0,-36.36565666585277,-26.85546875,-69.30183948083263,False
2.9765625,0.0,-46.30868198102985,-26.677098992353947,-110.15313210617484,False
2.98046875,0.0,-42.90132891664632,-18.953073972195092,-122.25519887490843,False
2.984375,0.0,-40.16332355061958,-15.272276259766818,-109.52185396891406,False
2.98828125,0.0,-45.41015625,-20.99609375,-116.30185123008363,False
2.9921875,0.0,-45.39871076104871,-20.561165169851055,-141.32317482602858,False
2.99609375,-4.503951018044379,-45.04826138060839,-2.429916579035601,-170.97315012725554,False
3.0,-191.50443083491027,-50.17296995177634,-2.302212413014284,-194.51048120650714,False
3.00390625,-195.57044078485532,-44.82315765779514,-17.58909359357832,-201.61097641466245,False
3.0078125,-185.44761509141688,-40.56043038619437,-18.088464007462914,-177.98002091790795,False
3.01171875,-181.4191667111769,-42.02554037014711,-18.965145386323403,-168.2475847633836,False
3.015625,-192.98286610303992,-43.53527189712795,-15.546759352872055,-201.35071076486386,False
3.01953125,-197.29316738904828,-46.807574800836335,-12.195793716806056,-208.19774767642392,False
3.0234375,-177.02082029819314,-43.79807105359541,-11.764055060432181,-173.8306287007081,False
3.02734375,-146.65385169316934,-37.58627037297033,-13.876820786534001,-132.37983667287267,False
3.03125,-133.26644268703072,-37.075036437030704,-22.449491312343568,-115.05904563595018,False
3.03515625,-131.62830917699304,-35.5868567158314,-22.13414494567208,-148.88736136651508,False
3.0390625,-122.67585039982909,-33.29588115004273,-28.98251153133012,-166.4137730245086,False
3.04296875,-106.95627819778076,-37.249054040665776,-36.086252819778075,-121.56920054528412,False
3.046875,-87.50150818161701,-42.824220896029175,-34.10186413632341,-80.72115879852888,False
3.05078125,-70.7337137442006,-36.296934138636225,-30.750540832366767,-66.65216418793113,False
3.0546875,-67.88236040318642,-22.753870482847027,-30.374837378677817,-77.45263713603345,False
3.05859375,-68.00826078165059,-35.41675409748505,-34.80388393129655,-89.65245534351727,False
3.0625,-52.67610078940541,-46.27285302904279,-40.652596043052924,-59.82817960785361,False
3.06640625,-29.54417505684593,-41.469480365263706,-45.864011615263706,-8.634727234922476,False
3.0703125,-19.49664527949884,-39.99292287266512,-44.168290892824444,17.754963765489563,False
3.07421875,-18.228739421814907,-37.95839000785971,-33.249505906232834,4.071146640925463,False
3.078125,-24.738768637071175,-32.73821162327555,-35.07446244353559,-29.15666776034672,False
3.08203125,-17.232614302282993,-33.56222721584666,-31.585615118727873,-22.404067726773288,False
3.0859375,17.191756551034736,-28.332116381020693,-25.52046769122764,20.2040712181796,False
3.08984375,40.778034489329265,-28.91550947980183,-30.8923935308689,46.84058212652439,False
3.09375,30.576474703561836,-33.362944561866684,-36.00723998710475,25.205380953561836,False
3.09765625,2.4528815449120986,-40.24561780841778,-30.784669339824198,-2.7919839610548163,False
3.1015625,3.391111939899884,-48.65509083503754,-32.06127835792992,3.944821267779745,False
3.10546875,22.65855102017458,-41.32954137925772,-45.42178057471615,46.305288865065314,False
3.109375,30.679931193535587,-34.10958388017336,-45.67644270388231,62.22882536854475,False
3.11328125,27.167586018100238,-31.426163981899762,-36.59760521908003,30.686275257920762,False
3.1171875,20.12602794797644,-38.59788468288365,-35.585366417790866,7.895330765092785,False
3.12109375,24.663806645632402,-39.38428515291173,-33.14366210818276,11.706171884537907,False
3.125,34.82335670899212,-32.95390214844942,-31.000777148449423,31.09640050782919,False
3.12890625,40.79887605298499,-42.58884322350751,-40.5393853581675,44.18071997848248,False
3.1328125,31.548894175009156,-46.729785358930535,-40.967220119643514,33.538322835276524,False
3.13671875,4.761308017199317,-40.96702320687972,-39.001747758599656,7.997020042998292,False
3.140625,0.0,-39.27495688865828,-36.56207794759492,-3.209863531620071,False
3.14453125,0.0,-47.88715081720791,-34.14409918279209,25.412442963313392,False
3.1484375,0.0,-49.10179023144192,-32.7863824228527,45.6003596964471,False
3.15234375,0.0,-40.53935555220669,-35.86074368972042,32.85058009553168,False
3.15625,0.0,-41.148410555411424,-44.530165063026494,-0.9228521586192162,False
3.16015625,0.0,-46.447373880249664,-48.12148528110121,-17.180841348354903,False
3.1640625,0.0,-48.54772321019779,-39.34352775318967,18.090163050943165,False
3.16796875,0.0,-37.69589669683189,-31.299120223415944,37.48421476315468,False
3.171875,0.0,-41.94813428992187,-33.33886134553168,13.382757180136736,False
3.17578125,0.0,-59.181231543022406,-38.5866187866278,-17.06036385522862,False
3.1796875,0.0,-62.60113162503052,-39.19987567337627,-33.618918153308506,False
3.18359375,0.9028169604733438,-47.61331913543064,-44.24550688323472,7.325707957179456,False
3.1875,34.24973150790502,-38.80697349797033,-36.85211975224332,43.62507725705042,False
3.19140625,-1.665914761628617,-47.76539346729642,-26.806229302740814,11.012974653964717,False
3.1953125,-28.518236161559123,-44.54492580962701,-24.92708420769489,-35.737650755829925,False
3.19921875,-36.07051804190575,-49.01500837428275,-25.79169400866805,-57.432688602582104,False
3.203125,-33.52866570397387,-56.36515831018801,-22.323233961054818,-30.93709702340984,False
3.20703125,-27.63306431612844,-64.40280946676027,-17.303684766268848,-1.0040154657072218,False
3.2109375,-39.16959281719265,-62.32265453317666,-25.517300333445245,-21.508547634217432,False
3.21484375,-61.87979756745208,-55.84224253372604,-30.286164645266147,-59.680207077508854,False
3.21875,-74.59429822469629,-62.38491216004822,-30.63384337227581,-81.30236034697211,False
3.22265625,-51.47352324578806,-57.96383082422781,-25.63425892366622,-52.80859184241851,False
3.2265625,-22.587016714229033,-52.68263185203272,-16.56275513902454,-1.1285132882126725,False
3.23046875,-9.458946769132343,-50.74233506732878,-14.7345977790641,10.50405667347063,False
3.234375,-16.69700118651569,-49.498818730161155,0.0,-17.01318281879502,False
3.23828125,-39.3552422108693,-56.76283689945669,0.0,-51.8550156717386,False
3.2421875,-31.06123885018618,-61.35109943459285,0.0,-35.51320618666829,False
3.24609375,-4.858073552527164,-54.40300210406239,0.0,7.583977698464778,False
3.25,-4.105127510530493,-43.593759538489714,0.0,16.86962386873512,False
3.25390625,-11.530972446892932,-48.778050985838114,0.0,-10.817238909321206,False
3.2578125,-4.39453125,-46.44734407428886,0.0,-31.62281295781956,False
3.26171875,-4.179676769199072,-30.31135299661193,0.0,-7.917006077925645,False
3.265625,4.198974341121353,-32.10736846271823,0.0,25.14415951005677,False
3.26953125,14.70196900561592,-46.07745210062874,0.0,33.27182773966854,False
3.2734375,-2.042965649990843,-52.64444492666809,0.0,-1.2976519099871804,False
3.27734375,-23.4633290039003,-49.44555126950149,-1.007331152111646,-31.288743505850448,False
3.28125,-23.963008895052496,-54.02854981839824,-38.13470005188621,-31.788355264161886,False
3.28515625,-5.9066472538456845,-46.95902300352521,-39.89205950128189,5.337800491774509,False
3.2890625,10.959635257691838,-31.43465919930102,-34.450520992308164,41.0319596636347,False
3.29296875,0.11630285908314003,-38.69821154697229,-44.88467716090831,3.087897539982908,False
3.296875,-14.3096629494262,-43.295065658954954,-43.44457235838115,-28.35768917485655,False
3.30078125,-19.41860639803736,-37.059297929003115,-42.768441716012454,-28.63338361707161,False
3.3046875,3.7962063926870955,-35.1814658428458,-34.66454106450678,16.15796038525516,False
3.30859375,17.230349049261385,-36.31015796682334,-16.214621516756196,54.26947139963069,False
3.3125,-14.631060624847393,-42.943295709467705,-20.134075557395313,37.74695430770053,False
3.31640625,-31.804573753510166,-41.72364920677919,-24.183886820096454,6.592974282324034,False
3.3203125,-15.971643324227811,-31.970052401263583,-15.908275851544378,-2.351273024508607,False
3.32421875,-10.625942814042787,-40.4885955213476,-26.664257253001768,1.1703036432620224,False
3.328125,-6.335405252273976,-38.86648403638362,-37.43839327956169,8.129267281835663,False
3.33203125,-6.291263372146258,-31.31169833887804,-31.06490498336589,0.8478603612196313,False
3.3359375,-23.0360137078806,-33.716204809394455,-23.975378368788913,-23.30879786121963,False
3.33984375,-25.731745238385933,-34.605670489057445,-26.00350277188511,-36.33687656431231,False
3.34375,-0.9001698224423148,-32.0885310954859,-30.636235654987182,-5.744234573388475,False
3.34765625,20.268261992964838,-26.74199745719387,-25.76543495719387,35.41758866438774,False
3.3515625,10.280345751175142,-22.815650086227947,-21.63639467981198,25.626643004853182,False
3.35546875,-25.49268060981565,-36.41346542699304,-27.471319512269563,-20.75019457331217,False
3.359375,-28.707313095165425,-46.682751552771336,-32.2265625,-29.131511529422536,False
3.36328125,-6.269351211006654,-39.164472416595444,-32.16217769443257,-4.277595327666199,False
3.3671875,14.557678349331583,-25.01903408657368,-29.992605737242094,17.66447286846844,False
3.37109375,10.931309052118257,-29.583027754495582,-37.805767344178605,1.5899723312252363,False
3.375,0.0,-39.977062316860994,-45.17455555407179,-47.72288231220622,False
3.37890625,0.0,-37.49774666936271,-36.045391616942375,-60.574296483945794,False
3.3828125,0.0,-33.540826535984614,-32.73994036900256,-23.49803590640642,False
3.38671875,0.0,-28.033770307444602,-33.74184101436115,10.990903619284538,False
3.390625,0.0,-35.65722858930533,-35.63183391069467,1.3436527133439142,False
3.39453125,0.0,-36.00524298773043,-34.99040963404957,-21.816055731900867,False
3.3984375,0.0,-31.314086727763872,-28.66760294891948,-33.65417633233624,False
3.40234375,0.0,-33.76884213618606,-23.579465791341107,-13.308361501953364,False
3.40625,0.0,-36.71185290066842,-28.95121527247894,18.079371842952632,False
3.41015625,0.0,-39.90880249984738,-34.06245349986265,17.81220549913009,False
3.4140625,0.0,-35.038218395189844,-29.69335389070321,-10.116679606427788,False
3.41796875,-0.6205147542362514,-30.972957815271915,-26.802868072123324,-39.43154109890194,False
3.421875,-23.149109725062573,-38.73127594469202,-42.380523262468714,0.0,False
3.42578125,-29.196130852460016,-43.58615067223172,-38.64587227978879,0.0,False
3.4296875,-9.361694619094127,-31.52188997451471,-25.147587195549995,0.0,False
3.43359375,3.703437862462609,-24.747253868811427,-33.29004448751603,0.0,False
3.4375,-3.323215600582957,-36.06720958025577,-36.33686410770968,0.0,False
3.44140625,-16.405975785160543,-49.790052773241975,-42.954115273241975,0.0,False
3.4453125,-25.452744414260422,-49.00780629998169,-41.80448790710274,0.0,False
3.44921875,-11.083048467830546,-39.00336497375168,-20.152585059058723,0.0,False
3.453125,9.025006485777073,-37.30233879028812,-24.85936355451105,0.0,False
3.45703125,0.5890613553812344,-43.30799234822355,-39.0625,0.0,False
3.4609375,-11.883666381165304,-38.63418834315102,-39.03251520342449,0.0,False
3.46484375,-16.984595322027438,-40.692734136814025,-37.86040515434451,-0.22553234565548783,False
3.46875,-13.977971096468469,-45.81098147243758,-30.63053470865637,-7.3970987729686835,False
3.47265625,-24.600349755066535,-43.02740813087535,-26.191213107373947,-10.909458552069344,False
3.4765625,-46.23947730359541,-44.74518526431449,-20.581433223202296,-48.352183417775606,False
3.48046875,-40.764673297188814,-38.79637613698797,-22.816156818493987,-62.93030511720896,False
3.484375,-16.50978994666402,-30.377549721111585,-18.405955755554878,-13.000048643328043,False
3.48828125,1.714200418141863,-33.79593575456293,-14.015329086421072,23.701789454507995,False
3.4921875,-6.534074108341981,-37.28929476222453,-24.87235712296258,15.656983748321226,False
3.49609375,-27.847113066170188,-42.87825910297888,-23.986108514680748,-14.838837977658406,False
3.5,-28.24460535954096,-39.96335535954096,-26.10602767137712,-35.618003944878524,False
3.50390625,-25.650876730282032,-37.643262153943596,-33.431154519717964,-18.39110240141017,False
3.5078125,-18.5546875,-39.18482366316689,-40.58850558158345,16.998101002624832,False
3.51171875,-19.122120519378544,-42.96875,-42.357780529593825,12.81058582553211,False
3.515625,-36.665984267215066,-42.75926091966302,-38.4395471983548,-29.272462427889018,False
3.51953125,-37.81500131623123,-36.268280591884384,-34.044219408115616,-42.997035856809305,False
3.5234375,-28.677298492629106,-40.60290186065499,-29.694486517214017,-12.18622668935417,False
3.52734375,-9.201487579736906,-42.78669519136857,-26.931324920263094,18.542318026263583,False
3.53125,-7.338586100131249,-37.01798434543068,-29.388265654569317,1.6045230087448874,False
3.53515625,-23.393506401843485,-33.96520380600659,-32.257203027713345,-39.90314731870345,False
3.5390625,-36.98633599377366,-27.220710993773654,-33.35692375778293,-50.27371409931632,False
3.54296875,-32.33846090745376,-23.40661913955192,-37.6227245932788,-33.64890035521336,False
3.546875,-5.921490622329386,-22.693871083735196,-23.468557811164693,-2.0065968936942986,False
3.55078125,-8.623102910206324,-30.018984012559518,-25.11554578767855,9.858679209650836,False
3.5546875,-33.39091401623833,-36.99983140719431,-46.08938614095599,-32.94326077086259,False
3.55859375,-39.0625,-33.644231044144554,-36.904949107959744,-68.89563557868253,False
3.5625,-38.76971604695703,-32.2419721817391,-30.715489704782687,-54.50833636956721,False
3.56640625,-29.367459823881326,-32.761254464013184,-29.23499404798242,-18.733563989912092,False
3.5703125,-16.694914769258943,-34.11745265382737,-27.4526609808021,-9.572959269319986,False
3.57421875,-20.202837908985472,-32.50769232236601,-30.589917191887437,-19.023237203943353,False
3.578125,-40.433270395198704,-41.29784506440388,-25.78259731167206,-33.563739526738296,False
3.58203125,-36.856590646364914,-49.55240984769869,-37.81839919576365,-43.53485461367659,False
3.5859375,-15.012457699380418,-42.11880322152362,-44.19618927214321,-16.364158022143204,False
3.58984375,-26.196657188587388,-45.818999765353155,-36.88694934298883,-9.54743204779928,False
3.59375,-35.45281931006593,-43.137511350109875,-30.097701555060432,-17.929596889879136,False
3.59765625,-29.91344110532902,-33.77158428458064,-25.255127102154805,-28.304276893083873,False
3.6015625,-33.449963229122154,-36.245485909742996,-35.741108458351135,-26.88235536788047,False
3.60546875,-26.060241505834146,-39.276145360483184,-38.34804801745674,1.1219579709206677,False
3.609375,-17.120543889634966,-31.526301256714685,-32.12203299543707,4.695690678030766,False
3.61328125,-18.436238611738492,-40.162339953912834,-43.97613186347821,-17.022452472607128,False
3.6171875,-30.233793152127465,-43.80608035796044,-44.41135714585496,-44.99922619002198,False
3.62109375,-43.338522749816875,-39.48854640382737,-28.528536942223173,-46.1652604611769,False
3.625,-24.168282547155414,-37.59765625,-20.050767896929557,-8.76605229825418,False
3.62890625,-2.3450973116720593,-37.59765625,-21.356708276738296,20.857219301324704,False
3.6328125,-14.964291266710413,-37.70802772288182,-32.11619102711818,0.5498305590739838,False
3.63671875,-38.983365174047734,-41.06310589557136,-28.5395353417623,-41.32980963290502,False
3.640625,-36.06502960747207,-42.559906484646845,-21.06387664252793,-35.306660059672794,False
3.64453125,-19.371490050054938,-44.74613905506043,-37.75741619994506,-10.61437954004395,False
3.6484375,-14.520152644670981,-39.23006911167745,-42.11164979092907,-6.435047327096814,False
3.65234375,-11.25635569012797,-29.865495029707496,-31.185728976234003,4.66411248857404,False
3.65625,-26.964677790410207,-32.56360830484678,-29.358156055426686,-17.185699719967037,False
3.66015625,-44.99487425409011,-42.87646511202002,-31.342284887979975,-49.52392801683353,False
3.6640625,-31.638729340892443,-39.71420733312477,-34.19515679366072,-25.028095098660113,False
3.66796875,-13.423412510682457,-29.909387494658773,-34.38844844951776,0.8057445385941888,False
3.671875,-6.280290666397045,-33.86289041038398,-25.723011558741835,-5.142825768039192,False
3.67578125,-19.795509648547185,-39.1879234830912,-21.52914355313759,-28.286691376205592,False
3.6796875,-42.02407987806739,-42.96875,-37.8966696488524,-41.28399787113906,False
3.68359375,-27.735781927232768,-42.92135562923509,-46.306267550821076,-18.70828699217081,False
3.6875,-10.508091483793187,-41.47213309577585,-28.820277686637773,20.698451425344892,False
3.69140625,-18.433168597774998,-40.335989481595654,-14.616545121932608,24.83635335276523,False
3.6953125,-29.53697667076186,-34.71598908415237,-14.056037673218974,-21.420198848895062,False
3.69921875,-36.44431611697751,-36.38994360257817,-25.519190551289086,-47.3434607275096,False
3.703125,-30.895577320000612,-43.68334791043523,-29.235236273043583,-17.003138210001833,False
3.70703125,-19.802961138749847,-35.5826540753571,-27.390157880982176,15.547653531696374,False
3.7109375,-13.633959503388072,-33.72246595713021,-28.746474335739578,12.174153268268116,False
3.71484375,-27.702971439689904,-34.33998395723965,-26.74614048574655,-18.976382233549018,False
3.71875,-38.04116894686241,-24.4297404353864,-23.359110323068002,-31.25226525302161,False
3.72265625,-21.689363105503325,-25.154159878441487,-21.10626330619315,-16.365484879586106,False
3.7265625,-13.357690367094982,-32.76232464557136,-24.57233215190453,-9.293170715190453,False
3.73046875,-19.190150584482968,-34.799264007370894,-29.487513925344892,-10.385201507370894,False
3.734375,-38.755718324583356,-53.11102611256944,-35.10840851252976,-29.63784619948416,False
3.73828125,-57.98439693718716,-49.19533443718716,-33.41880093242583,-53.44554522494201,False
3.7421875,-39.218206339274815,-31.37876175070199,-25.535481969539738,-29.9623824929801,False
3.74609375,-15.249650904504998,-35.18851632985857,-29.736756755212145,7.764100505212143,False
3.75,-19.005890134751557,-36.101695076913686,-28.38254734617263,5.445250980496887,False
3.75390625,-33.12092016008424,-35.23434161732389,-30.523330675436455,-23.05032056906971,False
3.7578125,-45.11225729312923,-37.56629846506623,-38.242726424668824,-55.61702582259935,False
3.76171875,-35.1867713038701,-36.258444624816875,-42.84261117384935,-53.11127137445062,False
3.765625,-6.709321778476377,-25.469759825952266,-38.7617876613814,-20.001349613905507,False
3.76953125,-3.6287395648922534,-28.38809539252793,-30.023469453940542,-5.8042902219034245,False
3.7734375,-25.00517431479673,-45.033706964961546,-37.04547102002198,-34.433276614576975,False
3.77734375,-42.41632632233549,-48.227594501587106,-35.12417878616775,-70.01503651110976,False
3.78125,-39.96397670128503,-44.69652818051401,-34.211879902783714,-45.603400090043344,False
3.78515625,-23.324207542958735,-38.021198953119274,-34.92966508591747,-8.106565609357832,False
3.7890625,-19.889577260865583,-36.116568251358196,-28.109137267656575,-2.457650498641802,False
3.79296875,-16.43896085462139,-35.36770358607182,-21.98894023023107,-4.460381641720522,False
3.796875,-26.541175513933826,-27.580274737119222,-22.90245034262255,-49.26963784262255,False
3.80078125,-45.784161446251986,-34.794822919210105,-36.03767187309242,-60.6289010041509,False
3.8046875,-27.672867419271153,-38.70154981458308,-33.39412159687462,-4.596317604688072,False
3.80859375,-23.332666036490448,-42.59230754189305,-39.254223643245226,2.9636087540443197,False
3.8125,-34.98927700753876,-45.769914196984494,-44.729090045476745,-25.689548980969967,False
3.81640625,-44.46584379959712,-42.05668759919424,-38.82062462802161,-49.23125061996399,False
3.8203125,-44.584689388620966,-43.84819875160247,-31.60879625213662,-60.11257564022343,False
3.82421875,-20.361346008576486,-40.934254726986936,-27.84830530460261,-32.58471092510072,False
3.828125,-16.521622913105848,-38.96622674658161,-28.23864416737883,-14.828107831766573,False
3.83203125,-28.582620967126548,-50.35854586678164,-25.829723412413774,-20.93761088494292,False
3.8359375,-36.42950103390917,-52.08126678671713,-24.59537215961116,-47.33031585734343,False
3.83984375,-44.87230254382622,-47.39632955411585,-29.867777010289632,-45.196979801829265,False
3.84375,-42.76617632470545,-47.98638309054697,-32.290828074446004,-10.395016282201942,False
3.84765625,-22.31554402316567,-37.58150141924063,-34.32508097683433,13.82090480405323,False
3.8515625,-18.958200597454525,-37.32016275485289,-38.63907652072397,1.96051687828104,False
3.85546875,-45.18227576918381,-43.440756201926014,-40.49479365385202,-55.5175274517734,False
3.859375,-52.37437860532902,-42.96875,-39.4035099976346,-78.70621623580759,False
3.86328125,-40.99037935119338,-42.72240373390001,-34.84421139627335,-51.33400154323343,False
3.8671875,-11.910324604343447,-35.69398235760943,-26.027259572828278,3.0780408228282767,False
3.87109375,-4.412295602643145,-37.341384598950064,-30.47230287052863,5.584146757874496,False
3.875,-33.047478272646806,-44.19478839198511,-36.099549047735316,-44.61058154529361,False
3.87890625,-42.14662161002076,-51.11930003700934,-35.30648121299066,-62.39155929506746,False
3.8828125,-32.580597702508854,-46.53938488127213,-39.50043898219082,-30.764997405689172,False
3.88671875,-28.82541871226444,-37.260799660379945,-38.0859375,-3.6030433349088247,False
3.890625,-29.42849812293981,-41.50390625,-37.740426802283,-8.904232732572336,False
3.89453125,-33.186611489683166,-41.15712253334656,-27.386166471445577,-12.438220394435627,False
3.8984375,-32.615232228970825,-31.39941728154377,-15.2627085463466,-19.524424434974364,False
3.90234375,-29.16867956255341,-35.92777729558357,-33.06473592395617,-32.71994056929862,False
3.90625,-11.668583505662047,-43.69448002831024,-42.66775103397229,-18.340637829268665,False
3.91015625,-11.245729401935051,-36.73876768328043,-34.095634690513975,0.6747473408314004,False
3.9140625,-39.315552607282385,-40.17402389055061,-31.839502292912954,-22.817118731687216,False
3.91796875,-45.6417627033606,-43.53897283819669,-34.803415303934436,-59.75383900364752,False
3.921875,-24.647055695656817,-32.31165851811439,-38.57421875,-49.925014163792575,False
3.92578125,-17.4244156600995,-35.0607815075235,-38.5571399344555,-12.012159878219997,False
3.9296875,-13.32070116972897,-45.48711524081309,-38.188768064796726,6.647414797872665,False
3.93359375,-18.34438166211724,-34.21405840170184,-41.067181352552765,0.004080427671709241,False
3.9375,-52.75127497977964,-35.46044963603345,-42.34526891176291,-40.157362358457455,False
3.94140625,-52.40854615293633,-43.89443061893352,-38.21804558253464,-42.049299207160736,False
3.9453125,-29.716960211665242,-42.51456676916738,-28.149822404163107,-2.7932954233304845,False
3.94921875,-27.934682979031866,-43.11485881989378,-23.523043107526554,0.0013710741972896567,False
3.953125,-31.13944294266223,-33.639898405546056,-25.964752657423233,-28.177503424317806,False
3.95703125,-41.83180162487791,-32.537200223568554,-28.458373710474913,-64.4013520460719,False
3.9609375,-50.331001155994386,-41.206114895540836,-32.45168692200281,-61.914610929678915,False
3.96484375,-37.73837878105732,-46.21293939052866,-38.43519526242293,-31.41149855396496,False
3.96875,-28.44257655124527,-41.39910849178977,-34.371041768404346,3.6093230184043463,False
3.97265625,-32.14137706400317,-38.696900084696615,-26.682653789219877,-5.866707266359419,False
3.9765625,-43.214947236295934,-41.67564819619094,-35.15625,-45.56842590190453,False
3.98046875,-49.17058537337761,-32.92130183261227,-34.663059457071476,-48.659780882487354,False
3.984375,-32.12552029285191,-26.097920450036625,-22.00642640359846,-17.37595116782139,False
3.98828125,-29.533474716914906,-46.05053731801672,-36.92529338603345,0.9391262132218288,False
3.9921875,-36.3024187702216,-49.90287432849033,-44.85045555826873,-28.751482042839264,False
3.99609375,-41.1690660862532,-39.02840198083262,-29.365071038334758,-67.90519176916737,False
4.0,-44.86268036183006,-38.13726336451593,-31.42108621505311,-67.68426998763887,False
4.00390625,-29.18423139803736,-39.499273405546056,-36.081304655546056,-34.52852795349796,False
4.0078125,-12.954177269640459,-38.137710453928094,-34.719741703928094,-4.423979539280918,False
4.01171875,-20.97198072770419,-39.63736756615493,-36.236716079385914,-19.836164979092906,False
4.015625,-47.205160627899524,-42.200710001831276,-39.11463062545782,-54.9655300024417,False
4.01953125,-55.559466998733285,-47.78181229396862,-40.33553068341371,-61.31424649746658,False
4.0234375,-38.76211552695031,-45.670600735563426,-34.893361425650106,-28.245320702600416,False
4.02734375,-17.841473714882078,-39.42788518305503,-27.867144411984277,-0.5618105917484307,False
4.03125,-25.609639200036625,-36.217014339290074,-28.859114853574045,-16.820666117919057,False
4.03515625,-46.05235548162617,-38.50661883088146,-30.35793739889818,-51.37456745589672,False
4.0390625,-63.82915873382272,-36.38364497168976,-32.68092249595568,-81.00022868529089,False
4.04296875,-59.12089822289708,-29.614666154163107,-31.39730105832621,-64.67339105039068,False
4.046875,-33.81903537419119,-25.3813851521487,-22.14374246505311,-30.923565117201807,False
4.05078125,-51.742729763140225,-38.642895875938585,-26.95848443890788,-50.35619105213357,False
4.0546875,-78.9361096115401,-40.510086098690635,-29.629837388215723,-93.23432707201502,False
4.05859375,-100.81445980153522,-40.489311344005614,-25.42525952646197,-118.17085825906483,False
4.0625,-93.31555160132166,-52.36943834511019,-26.4193213078414,-90.5109077399121,False
4.06640625,-82.13682271319131,-42.39313728482481,-27.587503147509462,-56.65964120299719,False
4.0703125,-98.77546382843975,-40.07411430991332,-20.8208347004334,-85.17858062583933,False
4.07421875,-116.86397312313342,-40.822479067623576,-16.288868461251294,-131.93381993013654,False
4.078125,-147.69755166046028,-35.69523428438435,-20.843984646846955,-173.7605209541542,False
4.08203125,-154.22891740935174,-37.126364397662066,-16.669520090648273,-170.66875276599316,False
4.0859375,-153.04275939293126,-37.665852288334754,-18.46944245208155,-137.29227629791845,False
4.08984375,-172.6028165729351,-39.7389875751633,-15.771087931521274,-140.31571447103352,False
4.09375,-179.69796189224454,-45.19704363020388,-6.5712307620406545,-159.6544964557136,False
4.09765625,-193.48017855916555,-52.52728318428763,-12.764343105237456,-185.75903382905017,False
4.1015625,-195.5823796433368,-46.199585504929495,-14.925530626182773,-177.30478526951956,False
4.10546875,-162.35485689323647,-27.866844612226835,-22.65241099224759,-151.92598965327798,False
4.109375,-143.17197896319132,-29.14045331766573,-27.762166077859845,-141.46338206568186,False
4.11328125,-159.4951730472804,-37.700344053323974,-25.633528602115256,-164.7285250442586,False
4.1171875,-167.40505966914907,-27.431826614195458,-19.131045364195458,-181.85972861791905,False
4.12109375,-151.74360817102536,-30.24408823686296,-21.76679468422336,-159.99718056571567,False
4.125,-135.093192509309,-42.617099274356,-29.2797961844555,-115.8281991572305,False
4.12890625,-116.72476245841473,-46.215334475338786,-28.791455322533878,-92.362443106382,False
4.1328125,-103.90071171441,-41.43510989293999,-28.07952525028997,-108.25413803530004,False
4.13671875,-100.64203231824564,-39.792805651782444,-21.553524829080697,-116.75954601468075,False
4.140625,-87.70493386414968,-46.36937168080821,-23.715053107068734,-89.95808566566964,False
4.14453125,-55.26454881989805,-46.12473816845736,-31.23259225627251,-38.872743670258224,False
4.1484375,-31.127527307029055,-52.3160781459834,-30.884191442970945,-7.569164135941888,False
4.15234375,-27.972476937339763,-54.12899590633012,-34.21479892183494,-14.6341604447717,False
4.15625,-31.755897648189976,-52.47510692646969,-34.89200402715036,-27.731310760179475,False
4.16015625,-31.305915982480773,-58.664568962886094,-27.63727910206324,-36.72267246444268,False
4.1640625,-5.5213754044072765,-60.671225468502016,-22.53199491057258,1.5190905986753753,False
4.16796875,29.724128536154126,-63.733414751249846,-24.485271422692353,54.86552230673089,False
4.171875,40.25493044533301,-57.496167911757524,-26.298033449575726,58.51571323102985,False
4.17578125,19.409611873931755,-54.30348000091564,-24.448816250305214,29.48974937240569,False
4.1796875,17.281525883973263,-56.93710489218349,-25.094204719738126,23.14084127205164,False
4.18359375,49.737977687564864,-51.61783516345156,-17.01985508172578,68.85093510583908,False
4.1875,73.81428311179954,-47.957075601269686,-15.48842908756562,94.21246928793798,False
4.19140625,62.088379681204984,-50.99299154559883,-25.27289145479795,66.20058887040655,False
4.1953125,37.855761820096454,-56.88850650143459,-35.08542671387583,34.030559174882484,False
4.19921875,32.289900166722624,-62.853766948861555,-32.971800938148576,17.872786728574045,False
4.203125,47.51773573892077,-45.88681317528385,-27.0875677668325,40.25247317940423,False
4.20703125,64.57851867713039,-33.144764928732755,-33.203125,84.83092389894396,False
4.2109375,67.25997463715585,-44.55941239087968,-32.84364316891521,93.15983575674562,False
4.21484375,49.3750595464939,-47.45462557164634,-23.23903153582317,63.85885099085366,False
4.21875,0.0,-37.46110680819242,-18.013646478771136,36.36558145679446,False
4.22265625,0.0,-47.2815234994964,-16.83133665188927,57.060382346096326,False
4.2265625,0.0,-57.60890144289464,-22.82507692322366,94.41562671682334,False
4.23046875,0.0,-44.451388994872104,-19.62022622436054,97.64408842561504,False
4.234375,0.0,-45.01129288243194,-22.348211356214136,57.62803686973508,False
4.23828125,0.0,-47.09413342387987,-32.35216481885606,32.96223322472836,False
4.2421875,0.0,-39.93103910399243,-35.64453125,53.07427311939137,False
4.24609375,0.0,-37.19983609106031,-35.55407015893969,74.34518688575876,False
4.25,0.0,-40.04088066360945,-33.457250621871566,63.77968912144427,False
4.25390625,0.0,-52.58867456962334,-40.111912715188325,32.70792834495757,False
4.2578125,0.0,-48.571912960871686,-41.53466600155659,7.818341968318887,False
4.26171875,1.577556107824602,-41.9004691216381,-29.56503214193145,21.846900824083676,False
4.265625,42.046106483106456,-39.58672723873764,-23.99767322747528,56.655587592326945,False
4.26953125,42.771792210963255,-40.77980023806617,-25.89693885629044,68.63406673483091,False
4.2734375,24.124330874946583,-47.29090795929736,-26.493840758729625,36.15019043594713,False
4.27734375,4.3971541745513365,-45.301066433433036,-29.42152352811012,-0.9193946671651813,False
4.28125,17.29049747817727,-42.60815748611281,-19.855360017854963,14.679376087321451,False
4.28515625,22.314530620498108,-45.82523406024905,-15.771406879501892,54.02789408726041,False
4.2890625,18.297625202215983,-43.7249733876137,-19.88012026127831,73.84403639315366,False
4.29296875,11.091453748779148,-37.901438602582104,-28.587195073098524,50.18957187194787,False
4.296875,-4.901322001663411,-33.38822001663411,-23.09729476330729,10.142849240019533,False
4.30078125,-4.424011144771382,-38.141648241484035,-27.208303446065564,8.17845011942189,False
4.3046875,20.12832300695886,-39.64407390733732,-35.8715930594555,29.95308303320718,False
4.30859375,34.595116734781016,-41.917369731304134,-29.465214979565694,33.618554234781016,False
4.3125,19.86310956766573,-39.76276124328531,-33.69140625,19.089167989256502,False
4.31640625,3.2516514886765964,-32.7887625328104,-33.488129597271396,7.8309796957026006,False
4.3203125,-0.6428345911421769,-34.853373143809904,-28.746742605762773,8.449104765047922,False
4.32421875,8.22233196114638,-39.58803870101331,-39.81158340709315,12.579605760133074,False
4.328125,18.087479064293127,-40.69553878685448,-46.49884877456965,21.505447814293127,False
4.33203125,5.672730073403736,-44.80938730390062,-49.278910351300205,8.696991887055916,False
4.3359375,-11.343321006425127,-41.710056858937186,-48.11413923714974,-18.42377172867957,False
4.33984375,-13.10192541737883,-34.64907177084605,-42.234808020998656,-25.775300730222195,False
4.34375,13.771248073342694,-34.33134022860457,-36.30342181968014,14.415772169912099,False
4.34765625,27.95898258653318,-37.990850680666625,-40.66046529706672,43.685746348666136,False
4.3515625,18.431588881852033,-35.49168628296301,-43.56320008240752,11.444982249954219,False
4.35546875,3.2841307434078315,-31.81476011090981,-34.10320863909019,-30.02633822544303,False
4.359375,0.0,-33.890092784763766,-32.37106179801001,0.0,False
4.36328125,0.0,-39.0625,-36.04220237913564,0.0,False
4.3671875,0.0,-38.862489793816,-33.836868218133816,0.0,False
4.37109375,0.0,-33.855845735792336,-37.56111414204615,0.0,False
4.375,0.0,-38.72751080644915,-36.62109375,0.0,False
4.37890625,0.0,-55.19417265047922,-36.933747558146635,0.0,False
4.3828125,0.0,-54.869435584788185,-44.7925171300818,0.0,False
4.38671875,0.0,-34.66796875,-41.096041482267125,0.0,False
4.390625,0.0,-35.207337416829446,-30.929109025912588,0.0,False
4.39453125,0.0,-48.58554928346865,-35.00697263598071,0.0,False
4.3984375,0.0,-42.161753611051765,-31.081268455850935,0.0,False
4.40234375,0.8073944272198184,-33.97314473954842,-26.93057520834603,1.107820260603937,False
4.40625,20.83353203973874,-29.061467521517518,-28.989217872512512,28.82665616225125,False
4.41015625,15.767898499023259,-35.862008815472194,-33.83639129364813,27.93764021579879,False
4.4140625,-5.968643652331828,-41.230734619170434,-37.451964713557565,-7.724870475216701,False
4.41796875,-8.314015096599928,-34.1796875,-33.618322034092294,-17.335564090922965,False
4.421875,3.9979089245925157,-34.143023930163,-31.62829054048898,2.344769426088151,False
4.42578125,6.439756668904896,-33.03734424597119,-28.974374504028813,25.399686012086438,False
4.4296875,8.474907673055792,-28.937951619918202,-33.3324828699182,37.49458723751679,False
4.43359375,-0.10501281019168551,-32.28218381814297,-36.361527598666136,21.49683465218851,False
4.4375,-14.745515514360273,-33.561005171453424,-29.48709664189354,-2.6316278918935416,False
4.44140625,-4.322162377151752,-30.142619138002075,-22.15953962428275,5.7424760217006465,False
4.4453125,9.61564140520083,-27.042948243498962,-27.06169619284886,27.34375,False
4.44921875,4.995545441732188,-31.888512477524838,-32.170225789678184,26.536257152054002,False
4.453125,-16.855286326384224,-35.55391559771992,-30.70734935863195,5.604607901303339,False
4.45703125,-22.92757962245147,-33.16670211588939,-29.13297202150226,-13.835777978497742,False
4.4609375,-9.290577596599928,-32.28137566193078,-24.90234375,-17.244208821038335,False
4.46484375,3.039671495391283,-33.56309158871017,-25.15897307257966,4.62114597004334,False
4.46875,5.546721191853367,-30.199871898083146,-31.370453240415724,22.195171330352238,False
4.47265625,-3.0881955995910144,-28.3203125,-21.750899901568793,1.728507279330973,False
4.4765625,-19.605407230496887,-28.635480729611768,-16.502606710108655,-29.105222671987548,False
4.48046875,-20.72177274739027,-37.23489556307612,-26.3671875,-35.30048984913925,False
4.484375,-1.2779603757172506,-52.248478226864854,-26.460629187141375,-0.9439547788731535,False
4.48828125,3.099253611051764,-39.70159941170187,-29.089812990248443,23.62664862730436,False
4.4921875,-5.484691200934009,-31.68260031629632,-35.88829927774556,2.533214213494292,False
4.49609375,-19.715252114446816,-42.367245837778114,-29.520969454815607,-31.983597559814083,False
4.5,0.0,-39.42288387216152,-23.223284559653887,-37.099300585246,False
4.50390625,0.0,-36.40777248847821,-30.566728154376754,-10.692232709681358,False
4.5078125,0.0,-43.25472584472865,-37.754892291374155,15.698565601916854,False
4.51171875,0.0,-38.0304984128922,-29.075118651568793,15.951911778171164,False
4.515625,0.0,-36.769408210993774,-23.54873584574533,-25.83556838298132,False
4.51953125,0.0,-40.35994325552469,-26.3485874450583,-35.78877109913925,False
4.5234375,0.0,-35.8337991011476,-26.084477961711023,-1.600431065727628,False
4.52734375,0.0,-28.339060449349898,-31.19375615195031,19.28752665845135,False
4.53125,0.0,-29.12834180987119,-29.935625925233502,11.509618613027287,False
4.53515625,0.0,-36.9959931250763,-33.86147906238555,-31.161595520235625,False
4.5390625,0.0,-34.19864409107557,-38.048024317848856,-52.161087149768036,False
4.54296875,-0.18993015333495913,-34.66796875,-36.919444846665044,-24.53040216132179,False
4.546875,-4.679535847271396,-34.37229361875839,-32.2635218914052,8.585785847271396,False
4.55078125,-0.34603852214455777,-27.00379226504792,-33.462691151333864,1.9347335995207864,False
4.5546875,-22.285410196786106,-31.11566453462642,-40.00180504898669,-36.18476428969296,False
4.55859375,-42.256208700860704,-40.282010886567576,-39.23069503685448,-49.4309207514345,False
4.5625,-35.77738452704352,-46.46171512537391,-43.66327128227825,-38.80162230633051,False
4.56640625,-14.384714358747406,-48.22681954660603,-48.77161289830302,-6.908306372848248,False
4.5703125,-8.095954687309241,-45.2589804167684,-47.15541447930656,14.755738958918325,False
4.57421875,-15.876025801947259,-41.57973261430228,-42.21966659290685,-8.219768648516665,False
4.578125,-34.19870486386667,-43.304892339066605,-47.83254513613333,-42.2522603835999,False
4.58203125,-33.80821581041692,-39.45525314560188,-46.90474634888903,-34.90158787083384,False
4.5859375,-12.6953125,-37.30102732801245,-35.49120938759004,7.822514802832377,False
4.58984375,-13.060205890984207,-41.704113770275626,-31.73828125,18.982465822992257,False
4.59375,-22.57354441994262,-34.53652446282505,-31.588059207514345,-7.643321366438775,False
4.59765625,-37.63533098446466,-31.66442207911122,-27.888543351696985,-40.18976143785863,False
4.6015625,-37.194655059596485,-42.01108563274526,-29.20238433627373,-41.28067578291923,False
4.60546875,-2.720837132599805,-42.024795221126844,-27.292155881836774,25.471935661091443,False
4.609375,0.9177255333597851,-30.533166642503968,-38.61922575082408,35.760625467357464,False
4.61328125,-37.595539897594776,-24.92145053720774,-51.299249607014225,-59.260371199865695,False
4.6171875,-60.85161114332804,-25.505795232572336,-40.01986746123794,-98.55364786808693,False
4.62109375,-43.35533331171408,-28.339567150683678,-40.051402167775606,-71.8296830171835,False
4.625,-16.916004774967952,-28.538177566616813,-52.03362389162749,-48.273372399807705,False
4.62890625,-13.490863399996949,-22.089078332926384,-46.83619263902454,-23.35669604024234,False
4.6328125,-33.64908178564888,-25.194293136140274,-46.170923593730926,-34.8964314396136,False
4.63671875,-55.664717631274016,-32.36309781324328,-52.71486995525096,-75.29349285501921,False
4.640625,-42.98854115797827,-35.491447835276524,-52.03560405475522,-63.698259236509585,False
4.64453125,-19.473664883713834,-31.488745746093272,-46.548684341045046,-8.75907770342449,False
4.6484375,-18.432244612989866,-25.602426157520448,-38.40092689384691,2.9050081644487853,False
4.65234375,-28.000475016787743,-31.128712141734326,-34.39215735837251,-22.681932383554116,False
4.65625,-44.061734582926384,-39.90323673658589,-39.84183645731596,-52.49515235853376,False
4.66015625,-46.17432147326334,-36.64055704240935,-46.85553670759065,-68.96953282375473,False
4.6640625,-28.437814770160553,-37.050802711601854,-45.996236827345705,-35.293455212975395,False
4.66796875,-8.145909477627884,-35.44840802786595,-36.50341981671957,-3.888664483121719,False
4.671875,-16.860814747131,-30.997781959620315,-33.770093986540104,-16.415394468776707,False
4.67578125,-34.19438273571516,-36.71975750297601,-35.723462252380806,-47.44724976726085,False
4.6796875,-22.65190429091381,-38.70572264909657,-37.716582033634474,-60.044108053046024,False
4.68359375,-15.307163007014333,-30.392626372369627,-40.20950675701433,-35.82650126753583,False
4.6875,-7.79294609608693,-33.30089451956535,-32.3237656717386,-17.42226011652219,False
4.69140625,-7.952766851574899,-35.369541455560984,-23.125997903567942,-25.88167820435539,False
4.6953125,-23.20534137124588,-29.045014631150043,-28.013609163258455,-37.932585831629225,False
4.69921875,-29.039961741117757,-34.96440712563336,-44.14293808375557,-45.10793516497772,False
4.703125,-22.413247962702968,-41.95248596020022,-48.073795743804176,-24.66002128860945,False
4.70703125,-9.924908054572091,-40.916073090892446,-30.153975209070932,15.844014200036625,False
4.7109375,-14.510665939197851,-38.21473691891521,-27.803087895275013,18.87914518916733,False
4.71484375,-34.21980632325113,-29.86539389650226,-38.514040515123305,-32.18593697541509,False
4.71875,-34.43196515230131,-31.8791144148303,-36.80758964679221,-63.860403663319495,False
4.72265625,-17.255247123191502,-35.29750907110372,-29.865875719202123,-25.991698890864416,False
4.7265625,-10.110181906971066,-38.65529096340496,-31.69774514329752,5.148145163136369,False
4.73046875,-18.937783109824743,-40.608402062541835,-30.660395859322705,-1.4590496257530579,False
4.734375,-39.43984346386278,-42.706874828317666,-28.50898423193139,-36.25054604520205,False
4.73828125,-48.411735727475275,-48.45340446068856,-33.41131963626236,-63.36300178931144,False
4.7421875,-37.45934814915145,-51.09864324522312,-38.40333074522312,-59.10382073743972,False
4.74609375,-21.51483669194848,-46.607938591136616,-33.76001957178611,-22.33110273470883,False
4.75,-10.866239908893908,-40.30695847576609,-23.64798969524478,3.6390097553717498,False
4.75390625,-26.72353951414749,-46.93258863164642,-29.0965369082321,-27.81527927744033,False
4.7578125,-47.01616103039922,-47.97343907375473,-36.03639021677756,-50.845273203821264,False
4.76171875,-37.839144144487854,-38.92709152003724,-33.82681472996276,-40.005053898715055,False
4.765625,-19.864292329909652,-35.683340980022585,-36.95413607990965,-26.334697019412733,False
4.76953125,-16.659088004364545,-36.504135159779025,-32.81326303259675,-2.4989317543645466,False
4.7734375,-30.606370082254912,-33.75006438087535,-23.848106916127456,-17.560718318886583,False
4.77734375,-50.19506849328113,-35.62617123225059,-33.8480466607502,-63.8865235446249,False
4.78125,-47.00253970630875,-46.93160151957942,-37.48445321084117,-60.5023448945489,False
4.78515625,-25.65178482862288,-48.16950268396716,-34.7626026755738,-22.059659849606277,False
4.7890625,-20.70304154330973,-44.11619007332743,-37.03342941185448,-0.7974286755280185,False
4.79296875,-37.864316653058424,-48.22556072011782,-35.11815565670594,-21.841114515292105,False
4.796875,-43.840395517946526,-45.257072835276524,-34.064874938957395,-54.20911432898914,False
4.80078125,-28.91297422475888,-41.31195586237944,-31.25,-41.079230920369916,False
4.8046875,-19.511994173890482,-36.56332627167145,-31.288511652219036,-6.373797673371589,False
4.80859375,-19.139689092830547,-35.349690685661095,-32.245906568566106,4.2444582373183986,False
4.8125,-22.182907497558297,-40.252502985365034,-32.81186215243865,-12.763359508530705,False
4.81640625,-39.15982240286002,-45.50747865286002,-35.05892759713998,-49.88254542228802,False
4.8203125,-40.780455969204006,-47.499613714747895,-32.61708019854108,-50.09583212519839,False
4.82421875,-22.497542969464252,-39.0625,-30.508426757633938,-9.176872152511123,False
4.828125,0.0,-39.27069463626236,-36.09495892977048,15.958051806098156,False
4.83203125,0.0,-44.28170257370895,-35.099290808890856,-1.8796533066017582,False
4.8359375,0.0,-40.31782486188267,-33.65331190670594,-48.89221172776387,False
4.83984375,0.0,-34.94576030475522,-32.657437469478694,-60.79694701120132,False
4.84375,0.0,-30.11147190895495,-31.211609922475887,-17.545755726559637,False
4.84765625,0.0,-38.33626323942372,-30.196414195561932,19.25478283720469,False
4.8515625,0.0,-44.085400515810036,-28.861946419851055,22.750472603314613,False
4.85546875,0.0,-35.60572388902454,-41.9921875,-19.052804717067513,False
4.859375,0.0,-34.39546602199194,-41.46664652455589,-54.55124863599597,False
4.86328125,0.0,-27.597398726498596,-29.121437114668538,-50.13547405307655,False
4.8671875,0.0,-21.913819283359786,-37.052564838694906,-23.30224054984129,False
4.87109375,-1.9056184848207753,-20.38993919166057,-47.18647128749085,-33.368862015362105,False
4.875,-47.57311521410695,-17.61627662983763,-43.08320488951288,-73.23849156085949,False
4.87890625,-52.543020731595654,-18.478145792638262,-46.47250030521304,-96.03897856641436,False
4.8828125,-46.91094818310848,-16.121657236279837,-60.258931841767904,-66.42055773457054,False
4.88671875,-23.983634619933465,-4.548806903155903,-52.93338940033268,-18.86940864019961,False
4.890625,-26.51258097683433,-8.745694827020511,-46.246630734189964,-16.292683328119278,False
4.89453125,-53.963200745146814,-19.414820809932237,-54.80392919006776,-57.3554453807002,False
4.8984375,-59.629745585856426,-16.621055598370162,-57.32479102444756,-85.41214013475155,False
4.90234375,-48.49519241774509,-17.42223982496032,-49.84325641328898,-58.82569998702844,False
4.90625,-28.53400447736707,-24.97874109105061,-39.297862233685365,-5.741693883157317,False
4.91015625,-22.741024113737637,-15.13671875,-45.17799762124588,-4.624037148241973,False
4.9140625,-41.6282269125412,-15.907411478680869,-51.15096313789525,-46.36445369727445,False
4.91796875,-53.87571232738386,-34.14009391004146,-48.22106298012437,-79.89331522070479,False
4.921875,0.0,-32.89455485776204,-45.468013151669616,-62.38342177103046,False
4.92578125,0.0,-25.33250337641924,-47.01061712168844,-23.596425383042362,False
4.9296875,0.0,-23.984081709345624,-50.09863388551459,-17.06307799719204,False
4.93359375,0.0,-25.429613576704718,-45.23470765482877,-52.888481224436845,False
4.9375,0.0,-26.112614788716275,-40.76105228871627,-79.33398938240141,False
4.94140625,0.0,-20.37308955713588,-34.903674288090585,-60.580615347637654,False
4.9453125,0.0,-29.163246720667235,-40.86229377785239,-37.57366098681399,False
4.94921875,0.0,-37.340371196282504,-48.68958689415212,-26.320809424978634,False
4.953125,0.0,-31.34925384949945,-45.2116485510011,-49.51103917409352,False
4.95703125,0.0,-33.870610625496,-40.36805097178133,-76.80994034628533,False
4.9609375,0.0,-37.84593990355268,-36.941090545263094,-67.54766926924368,False
4.96484375,-0.34063571836890244,-32.146412919207314,-44.47366854039634,-36.067430449695124,False
4.96875,-8.829541465722484,-30.390939770160553,-45.11640057459862,-12.580433314510714,False
4.97265625,-22.035189155780735,-33.36050047308021,-37.88921815864974,-34.81622359907215,False
4.9765625,-34.91947144732023,-37.05018036183006,-32.96634644732023,-73.08433513154682,False
4.98046875,-28.505180353763507,-35.40702285612905,-27.34375,-68.00984896755388,False
4.984375,-9.308371755203883,-29.705633946557196,-27.16482481725369,-35.18969228802955,False
4.98828125,0.9065184920949823,-28.091253691170188,-23.06885987669393,-1.9633484445580516,False
4.9921875,-13.507097590195958,-34.1196844381448,-26.15892053865759,-15.331959711327148,False
4.99609375,-44.186383111036506,-32.634486879654496,-32.795200620345504,-54.480467796209254,False
5.0,-48.91813900164815,-30.88261172704798,-34.70826640901599,-59.523994036900255,False
5.00390625,-27.8756996482205,-33.50951917427202,-35.341386123786705,-23.342949720713023,False
5.0078125,-18.308847935233793,-29.418662155872298,-28.38120607793615,0.18607861334086184,False
5.01171875,-36.112117569596904,-32.08419924495365,-29.907181897182582,-31.28996057064886,False
5.015625,-58.22511718034613,-28.589238294365423,-32.63507812976925,-77.36779295563457,False
5.01953125,-61.53589639161885,-23.757973690636064,-31.282488497283605,-81.97873189705165,False
5.0234375,-73.34263358793187,-31.67187356931388,-43.25613907413625,-69.03459923620437,False
5.02734375,-75.96569458328246,-41.52405630952018,-38.231667738157014,-62.61622053560527,False
5.03125,-83.49096712474056,-41.850519768267,-30.39486698434257,-78.56255150470028,False
5.03515625,-106.4847755921133,-38.4930273127518,-33.06103998481565,-123.4111038411061,False
5.0390625,-119.54812716523716,-36.98755060168793,-29.56121039619071,-142.86281911017338,False
5.04296875,-141.03638187110855,-45.4510500282322,-24.27093427618728,-138.46985019762545,False
5.046875,-161.55957424688683,-46.24317324273593,-21.160145758301795,-145.614219780094,False
5.05078125,-160.1973847368903,-43.15385631600635,-25.16971953978695,-160.10521908003173,False
5.0546875,-161.690511832728,-47.26000359579111,-31.16737787663289,-182.10249816872178,False
5.05859375,-174.08872036062823,-44.83908013113754,-28.820804504040865,-202.49555052035683,False
5.0625,-168.43563057013796,-43.274559157917224,-17.719822537693812,-175.73743523760834,False
5.06640625,-156.4520073274678,-50.354313161971184,-9.826969411971186,-140.74521477817288,False
5.0703125,-150.55950557395312,-51.7578125,-11.39475920598828,-132.96084426695458,False
5.07421875,-166.02164580408376,-51.799004337840316,-14.910163641878281,-147.93464363516358,False
5.078125,-175.86208870032354,-53.08554046036567,-9.579713873924058,-158.00973212105487,False
5.08203125,-143.70145205103162,-61.30484058341472,-5.350348801275791,-141.0844886918569,False
5.0859375,-124.64632246902087,-67.1123532116042,-4.966030742583323,-106.46486521029179,False
5.08984375,-115.80200456130578,-60.88909812625908,-7.253246424974055,-85.62863177995848,False
5.09375,-96.49936143709559,-57.78481622359907,-16.957773537648027,-101.84315292699304,False
5.09765625,-114.44693132134354,-61.81762233320107,-24.90234375,-129.23140322648334,False
5.1015625,-116.71352648457054,-67.89574478435382,-24.733750944310483,-111.77464554972224,False
5.10546875,-73.09676227760175,-57.384828460120644,-20.86935245552035,-44.88450714416281,False
5.109375,-58.899082262544255,-52.12412775836284,-17.781818936179953,-23.2333887803687,False
5.11328125,-54.62633816841655,-49.39795535877793,-11.475116076333782,-41.48453237547308,False
5.1171875,-53.202208112676274,-51.57625330985593,-17.06939561267627,-51.9598198274678,False
5.12109375,-51.31736981710109,-58.42945954401172,-16.581026193001463,-42.986872024172875,False
5.125,-18.157344236433282,-54.769883675680624,-16.195664925680624,13.834108844692345,False
5.12890625,1.6019595396343325,-56.53734104106892,-18.025092666427568,49.3352745749649,False
5.1328125,-7.1359643015199605,-53.9710243140337,-17.442507878311563,14.50632267885484,False
5.13671875,-24.756711825479183,-49.202607091624955,-25.744302530979123,-32.27794797643755,False
5.140625,-19.961290402575997,-57.72150836283726,-33.56622121459529,-19.978100964473203,False
5.14453125,14.453107115331786,-60.14229399723765,-30.63616837914352,36.46060866056712,False
5.1484375,20.975080547628494,-61.906652738142476,-27.91608405948602,54.225209547826886,False
5.15234375,20.718193902736303,-59.52823621945274,-29.89034695136815,42.598871522487656,False
5.15625,25.43128033054572,-58.85800964854719,-32.1249241736357,12.30908685981565,False
5.16015625,26.67301532644527,-64.73752103236981,-29.43855138002869,5.3548783174867225,False
5.1640625,33.97807998107679,-59.77192001892321,-21.25913135415395,50.95138242430717,False
5.16796875,39.97286346103956,-53.36641039898974,-16.48293477597363,76.24483999206446,False
5.171875,26.396337729672812,-56.990755621642656,-25.787968263566718,54.05758082422781,False
5.17578125,4.944782875358647,-64.92074945821379,-46.35288691929674,17.08236199713082,False
5.1796875,7.384903686210475,-64.14195076913686,-55.935296743376874,7.062582026004151,False
5.18359375,31.5730966151874,-57.004078886125015,-39.664580408375045,35.88566147295813,False
5.1875,49.72122571500519,-54.094891518756484,-31.33346178499481,74.30221178499481,False
5.19140625,46.88769733930533,-51.67399813820047,-33.140264228650345,73.97174800276218,False
5.1953125,25.07542696442742,-50.16191194031559,-31.780307654743012,24.06181565513979,False
