time_s,TP9,AF7,AF8,TP10,is_gap
0.0,-123.53515625,-348.6328125,-395.5078125,651.3671875,False
0.00390625,-45.04157284218005,-432.34887453589107,-489.3474292090667,-978.930852069582,False
0.0078125,-138.5069659309681,-604.227813731894,-559.159024626421,214.95932959181334,False
0.01171875,-261.0830563332671,-874.1994371829738,-588.0995985130324,-852.4435129942553,False
0.015625,-223.5077131845129,-795.9112697294034,-518.117735167614,-699.920881845129,False
0.01953125,-107.09957714521452,-798.0658905734324,-527.6450984942244,451.4619430693069,False
0.0234375,-59.08644792430632,-756.3393600644787,-499.2052373640142,-963.785538710121,False
0.02734375,-121.52169361707817,-695.2748412004216,-461.8990825337652,377.4490155953982,False
0.03125,-219.2537694524661,-797.1138585212688,-566.2394310177546,-715.1048709471642,False
0.03515625,-219.10282662380823,-952.5858673106894,-730.5237196896773,-680.8706912357902,False
0.0390625,-85.04004485157061,-619.719919989076,-490.41323937771193,376.5905322316354,False
0.04296875,17.379219365965834,-267.0568289145562,-360.9181227414586,-972.8610469739278,False
0.046875,-29.926956718134036,-533.6916395703918,-534.3741017164914,525.645702518367,False
0.05078125,-167.14402560047674,-877.8210015011919,-571.0755700135986,-555.4314708814632,False
0.0546875,-197.12954368353502,-819.1311589926354,-510.5374089926354,-719.4800046410891,False
0.05859375,-55.16673955723277,-488.4190835937022,-416.33238265255454,345.04015705211464,False
0.0625,55.92879437683352,-462.4525684990374,-443.7915227069582,-981.6864987279978,False
0.06640625,8.332951350690628,-897.1684521967823,-585.8419744969289,755.1773867707952,False
0.0703125,-120.60308135848307,-966.7610641272461,-575.6689709769588,-267.81298464047796,False
0.07421875,-116.47671386062217,-908.3301342287007,-551.7654521528542,-649.9780240610867,False
0.078125,-2.6912016630507853,-972.0874588916305,-555.3063337445761,303.80788951254357,False
0.08203125,69.22626670219105,-652.2344373109186,-447.2342904863403,-985.6691154141456,False
0.0859375,44.69516233307358,-524.3280268782087,-441.2315227833547,848.1971135481604,False
0.08984375,-75.53935803865132,-838.5595878345545,-576.886015531549,-129.36661277661483,False
0.09375,-122.90777909128289,-997.8897313752243,-742.4362547659988,-663.3379046426436,False
0.09765625,-17.87598193413092,-810.8749025944261,-561.2933526425559,186.9247878563898,False
0.1015625,101.7624738819368,-701.3414394824899,-477.91812058810046,962.0422355820651,False
0.10546875,84.16126990007945,-967.7065647822069,-621.2069352827262,934.9014234668153,False
0.109375,-43.413282300452266,-999.7633498158843,-777.5671501611967,-6.622265959234824,False
0.11328125,-117.67291655526188,-1000.0,-794.8145384690307,-616.0806834111257,False
0.1171875,-33.16919419806564,-953.3742436743674,-597.7337805395123,128.32333851874773,False
0.12109375,99.5700427247586,-690.0142515336604,-485.3074852841187,912.4159757555617,False
0.125,127.85484734996639,-895.439388072557,-710.3295879041129,977.8592816586964,False
0.12890625,11.875004774783037,-999.8601585418959,-742.6331066266349,196.36492186545036,False
0.1328125,-82.51953125,-971.19140625,-739.2578125,-644.04296875,False
0.13671875,-16.445037741319965,-999.8275158541604,-732.2371144024993,-103.2774326081263,False
0.140625,105.67408826885664,-865.2570279762796,-588.0886558571535,844.4627649375187,False
0.14453125,121.82972311988144,-679.438674119148,-574.8895473314692,-965.4867342202972,False
0.1484375,-19.71029342113306,-920.9011529918872,-696.3019237857513,223.68473509212845,False
0.15234375,-113.89489914703276,-998.9200037625291,-792.0895035467088,-671.2456835961374,False
0.15625,-54.029922849055744,-981.6868568367254,-756.8307449234507,-288.4281103891639,False
0.16015625,68.38041260198312,-999.7822831999022,-682.0346697293437,769.2424828022827,False
0.1640625,93.0182048152732,-986.4701747952573,-681.6355517930265,-957.8106736454895,False
0.16796875,-35.92222759617735,-987.2957950100837,-797.761026210047,302.21786457060125,False
0.171875,-158.71668275768548,-999.9014604151388,-830.8045485538137,-682.6336903438607,False
0.17578125,-94.17301593440594,-987.3861572355153,-720.9261372100751,-445.9151969884488,False
0.1796875,46.63887156809571,-855.1739848476747,-622.0883660449642,680.2323589710782,False
0.18359375,81.89988378178096,-920.6468064341157,-742.2169246004462,-977.072506512804,False
0.1875,-60.891333949349246,-998.3347538872729,-833.9741542745007,407.58724575286396,False
0.19140625,-182.13800762390758,-986.1254180067072,-757.9527805204577,-570.0817130301594,False
0.1953125,-157.74128411105,-999.7334477371348,-757.7849256279794,-581.2385166468035,False
0.19921875,-31.54070683477967,-987.0476408283934,-757.3327829936442,500.70716183233503,False
0.203125,30.74975195002139,-862.3997952095557,-640.5935759591584,-944.1574202993218,False
0.20703125,-64.46762840346534,-944.0507038985148,-690.6230662128713,494.54913753094047,False
0.2109375,-168.0291771546324,-999.2580440628246,-813.7470374281917,-549.7862460276233,False
0.21484375,-152.55264675773134,-998.553061686377,-854.0147091966141,-711.0762074471336,False
0.21875,-65.41458817148445,-825.6427121688413,-629.442246321732,310.9417254247387,False
0.22265625,-5.938009708088863,-548.5643480797733,-479.93994277900015,985.7593289710916,False
0.2265625,-35.87900293935644,-691.6584480713697,-615.5590900886964,598.4901956992575,False
0.23046875,-166.565377824589,-975.5557985241093,-665.6720406748457,-524.3717485714722,False
0.234375,-204.21783390449522,-966.5655638174884,-593.4951119677497,-917.7303423030148,False
0.23828125,-90.93941349430082,-688.8416841901204,-498.6711480392831,27.42271297442244,False
0.2421875,13.954853127100776,-599.4112336139461,-496.10383611272385,934.4455192354703,False
0.24609375,-19.80054776310965,-758.5502039787311,-532.0075790131096,673.9548358047609,False
0.25,-146.13112233010452,-784.2542292443317,-565.3193669120119,-455.4400612758204,False
0.25390625,-219.49737291437475,-940.2314743193069,-648.5010642991383,-991.2582973792171,False
0.2578125,-154.35399334204254,-999.1236184165291,-648.9407621317687,-160.0584564749878,False
0.26171875,-32.00299694814521,-905.1606699852564,-574.3060038272322,883.2616901030526,False
0.265625,-40.87906620523164,-599.6198795226744,-455.1340496462841,784.179747184788,False
0.26953125,-158.79468446342358,-714.9302876535477,-542.4302769109423,-342.94403603976957,False
0.2734375,-192.54118608475432,-986.9886565479464,-688.9475650038962,-993.0218933351669,False
0.27734375,-122.69338360554299,-811.1559210375542,-557.8180145373709,-261.43580171346946,False
0.28125,-21.477270805777664,-474.895832550502,-415.04757579059697,815.8848256290205,False
0.28515625,-23.33759377100776,-512.1290279995263,-477.4720107387857,907.6477919887857,False
0.2890625,-127.12800142861508,-904.0537788587887,-677.306017277075,-105.74485182893284,False
0.29296875,-190.15942145579967,-998.242658981009,-698.8653182866834,-898.2562483766729,False
0.296875,-113.78886912128714,-864.4091432797794,-526.7356813806381,-275.39602647330696,False
0.30078125,34.018100812427434,-832.5518485875145,-498.49066395984846,809.0506091295913,False
0.3046875,55.83720806976531,-958.857604510451,-639.7657181082691,989.5403602860285,False
0.30859375,-78.05502386290715,-903.6949310181507,-558.3906252387245,170.5882746134572,False
0.3125,-162.92813092073095,-806.0131289821691,-479.09576113861385,-701.606529468051,False
0.31640625,-78.20551477890844,-852.9217613601638,-517.5794380653343,-241.64783014759809,False
0.3203125,63.39572439535843,-863.6579871986341,-503.5773173948084,798.1981308821732,False
0.32421875,91.05720142326733,-546.9946083149982,-391.2167746722589,-960.5002492436745,False
0.328125,-18.930161783305238,-527.2424707525295,-428.31464274421825,324.8053697527703,False
0.33203125,-103.65170631646498,-888.4872699509534,-595.4447495530803,-583.2558027938211,False
0.3359375,-47.58908484461896,-932.3602005095337,-535.5012965130936,-338.52279747945056,False
0.33984375,69.05234523018274,-511.58523512941576,-359.82359086603105,725.5827742062402,False
0.34375,116.85367354129744,-351.37605611746017,-334.3824482063191,-933.5617012276173,False
0.34765625,18.257099147414735,-797.6978741710977,-527.5386208325693,427.5140784477753,False
0.3515625,-110.36660306655664,-997.0708496630913,-652.4395440846168,-549.6716501077192,False
0.35546875,-110.37841901316996,-981.7004493751145,-575.8014341616757,-514.3768584707113,False
0.359375,10.686471750473657,-641.9601487058428,-414.60891423343725,578.5637727184178,False
0.36328125,121.81404168321824,-585.0646334814062,-445.4314743533429,-941.247289282604,False
0.3671875,44.23532088451901,-771.5896589658967,-506.23908962076763,516.1986304967302,False
0.37109375,-112.43392700948786,-753.1038967487625,-514.5820720719,-498.505912491215,False
0.375,-114.24708265916617,-782.060323459136,-527.5423255474865,-606.1773604473962,False
0.37890625,13.850500653150391,-772.1984896851892,-531.6561600008403,422.6822769453188,False
0.3828125,108.5065863357169,-541.7314246615633,-476.69100134839874,-948.5899707592287,False
0.38671875,46.12546455799669,-676.1061541282161,-528.7881529594207,586.9116155732447,False
0.390625,-73.1471096328383,-869.733115889714,-615.6971410031629,-451.2094764163917,False
0.39453125,-73.75356535132616,-970.6050987269297,-675.818550712736,-730.2022140270733,False
0.3984375,7.117590014209753,-797.959651650929,-499.66206473077864,258.4199120866947,False
0.40234375,105.15575225928926,-291.86068010717776,-366.9666200994622,983.2190061514546,False
0.40625,80.87166409783339,-402.8915369835595,-521.0888737528267,744.1771222478151,False
0.41015625,-71.1422767352411,-938.6593061518365,-724.9053636157031,-332.3454115229481,False
0.4140625,-135.64854206774845,-891.6012043912724,-649.6419987050789,-858.5184039237257,False
0.41796875,-43.70399180888285,-452.70248736669623,-506.9872590314276,29.52658770931373,False
0.421875,57.04973260011049,-423.14758154973424,-559.8977968787327,920.6707148362846,False
0.42578125,24.010588150476686,-752.961437866681,-588.5594416996424,778.883493581174,False
0.4296875,-88.19412214658965,-794.0434342913458,-584.1307817847756,-275.28635567549804,False
0.43359375,-166.45323696181936,-767.3371325551549,-594.9231521764041,-899.1862595871784,False
0.4375,-103.21411587881195,-818.0339337415205,-616.1687727743232,-155.93536102792893,False
0.44140625,13.842812232612147,-977.1836992727051,-736.3964640821721,869.0242396635497,False
0.4453125,-18.734089007975314,-788.0434743686212,-571.1747134350364,849.6131050712736,False
0.44921875,-191.67053424092407,-632.5913678607444,-521.4790033690869,-237.27917225316287,False
0.453125,-277.1859232242712,-938.6941300972469,-694.3092898708214,-985.6237085001222,False
0.45703125,-189.1518361905635,-788.0447549963329,-568.7824207767999,-411.2379770963207,False
0.4609375,-72.76205272566155,-235.9503433814092,-374.85628781397054,731.6264447610463,False
0.46484375,-80.41540373655421,-277.5199991787373,-460.9980203749542,925.9626917552866,False
0.46875,-215.25513242713006,-796.8248143217489,-647.0106677410314,-70.1519583800449,False
0.47265625,-316.8072774227678,-771.1556214382296,-596.7954987529029,-950.3504536244118,False
0.4765625,-232.5506150875504,-500.1117000805983,-489.0348301323188,-570.9297302343082,False
0.48046875,-90.58725764682515,-538.4416967777913,-467.3978640836033,585.7815531801932,False
0.484375,-83.5720380011306,-522.5346437083664,-450.2386410079142,955.1881173417161,False
0.48828125,-194.35312671892189,-661.728317471504,-536.8766640118873,37.27422438424401,False
0.4921875,-288.359635209772,-816.867048084856,-568.487689451812,-927.1538863881165,False
0.49609375,-252.0630643793546,-559.5468563783461,-466.25416122341403,-685.2471379950496,False
0.5,-159.17443555964675,-791.9780729103006,-571.8290872987075,478.59189749740267,False
0.50390625,-123.87258419852401,-431.5777172335289,-412.2838037927056,-951.1027600155849,False
0.5078125,-211.2811141657245,-5.516118921117766,-334.2771408341227,165.4523842376857,False
0.51171875,-329.4280481784361,-415.38816733063925,-516.3833980913494,-856.346868458947,False
0.515625,-321.72078314042284,-445.42562121915427,-425.3703228411745,-748.1900312481283,False
0.51953125,-229.85092291781262,3.8679323661532976,-280.71265785432706,368.6492998258161,False
0.5234375,-181.93732978938766,27.62589259113549,-325.6128119175121,-936.7892871398126,False
0.52734375,-249.29470486111111,-241.1205150462963,-410.3913483796296,318.77531828703695,False
0.53125,-372.4842012085192,-276.8893676377345,-409.33679810204427,-709.9891666793987,False
0.53515625,-400.9971345890882,-365.52194857490986,-435.58095293115565,-773.1011072522612,False
0.5390625,-269.19349378514244,-94.83047371577436,-309.0546359323432,319.00116552453846,False
0.54296875,-159.7014200291817,108.84458386489337,-253.15945989045406,-945.464985313665,False
0.546875,-232.93916305693068,-418.27603713062274,-366.0251984399829,510.47115887804057,False
0.55078125,-344.8495951708886,-143.06383996096378,-318.4350208454287,-512.2402139640501,False
0.5546875,-324.8869698882387,85.48287891317301,-310.2495137180682,-765.1431046320204,False
0.55859375,-199.69020013980565,-34.63287409470114,-293.89840025669236,237.57711871447566,False
0.5625,-96.32829603901752,330.9281069120381,-45.42354063887058,965.7962967475407,False
0.56640625,-143.20352367001772,487.8562009182302,-45.863016743185845,688.1840353904388,False
0.5703125,-291.51127687083664,34.604080089225704,-363.66347786354885,-391.6960675857881,False
0.57421875,-363.9262933454804,-347.1224292568146,-471.633043838238,-826.4702094124343,False
0.578125,-250.32696312755914,-19.757322159750686,-318.85878678268045,102.28189646611258,False
0.58203125,-132.82986827328565,265.2719644794341,-217.5805362654321,944.6210517319093,False
0.5859375,-143.00427818286684,153.54211745821365,-290.5629435502353,792.0985094515828,False
0.58984375,-266.99671133044063,-481.0054624954165,-527.6199543176679,-228.76449535537495,False
0.59375,-333.7630638063806,-369.912707416575,-425.72968234323434,-794.0502383571691,False
0.59765625,-188.53749694432562,407.19833332060136,-163.9249946525698,29.38078668337107,False
0.6015625,-55.86685901500337,557.0478592613671,-45.99598632394732,913.8604196586812,False
0.60546875,-93.44501073371225,307.12222155375264,-169.91065425987046,909.1934150012223,False
0.609375,-4.278854817395484,243.83559586737147,-304.37120825324365,36.82804428459883,False
0.61328125,0.0,184.3018667305812,-295.61990561785734,-667.2452653757716,False
0.6171875,0.0,169.02907498052008,-297.2573472258296,-27.02746979656854,False
0.62109375,0.0,399.5253746294768,-141.60263682618262,868.2871325326977,False
0.625,0.0,563.2958181663662,-12.987451682148759,973.2279953248182,False
0.62890625,0.0,187.09336753987895,-254.9928414065365,184.81570650554636,False
0.6328125,0.0,-449.97443259946226,-479.77167428038865,-643.2615337384648,False
0.63671875,0.0,-619.9281773284239,-405.04038264682515,-141.4987915762697,False
0.640625,0.0,306.9785005844335,-25.10121346336024,812.31491747265,False
0.64453125,0.0,737.4278395331694,57.147258200666144,-927.8402195024598,False
0.6484375,0.0,162.16275978006786,-283.71703929979225,290.348300328867,False
0.65234375,0.0,-29.55569808282911,-343.641134946828,-554.5059090327435,False
0.65625,-233.0232974539822,321.83544169950073,-139.68829539558772,-271.71092175657185,False
0.66015625,-105.16919204941328,598.156169783645,52.458899861340285,730.4208529576917,False
0.6640625,-57.53900520610524,324.09583669139215,-126.68882706983743,-887.443726652738,False
0.66796875,-142.63798518379883,-22.364880704562097,-330.24382968625866,314.1090333851523,False
0.671875,-247.15963078512715,100.08992706996395,-264.88258092302283,-606.6468978712106,False
0.67578125,-237.3982973686824,29.059911032130415,-295.009576435785,-432.75045548646335,False
0.6796875,-114.743408098683,-314.51695397963397,-403.43534789807796,655.5788855764529,False
0.68359375,-37.927742969609454,82.8008853402701,-154.76504247646986,-893.7248786727632,False
0.6875,-91.18081642845138,439.01736315353236,-49.919006724393455,468.13418015301295,False
0.69140625,-238.93090905358125,-76.33173093450159,-358.9390591101112,-436.93204442759577,False
0.6953125,-282.850925066465,-108.43299499220755,-276.1738983143106,-478.74463553126145,False
0.69921875,-162.2219336307523,421.01499476715765,32.417870395480634,534.4744824928956,False
0.703125,-51.83081497349558,633.9590094346727,106.39716380978555,-894.2816238950213,False
0.70703125,-96.8316151276586,299.43959565227357,-94.65341879240006,484.93884219151073,False
0.7109375,-259.47778285995844,-48.709777298631025,-274.1783518360784,-487.5426063661155,False
0.71484375,-279.2413118583084,109.26667873021452,-253.64994934264806,-694.2630369870287,False
0.71875,-141.49087706079638,401.25727796303937,-78.98756455506663,292.67175849529394,False
0.72265625,-42.32720758151011,207.00967526775347,-54.40872939329585,-945.1906012707786,False
0.7265625,-134.93419438099676,-244.05537049097046,-243.1405481306912,608.6341481639215,False
0.73046875,-267.6447929081103,21.662683303920687,-241.54490373082447,-353.3536404855763,False
0.734375,-264.44829679574343,179.75341781954714,-241.68226930613275,-743.6864216811557,False
0.73828125,-153.72187705303122,84.05948371516531,-235.09180033650614,92.70560988396073,False
0.7421875,-64.83702393547944,323.9477379415449,-12.74827951208519,924.0472443068967,False
0.74609375,-70.05681036853686,312.15514129537956,-81.56284378437844,774.6380595090759,False
0.75,-3.7315518783542103,-94.43539896392372,-325.8026796362552,-287.92958268112693,False
0.75390625,0.0,-278.08522848805234,-379.57990087201307,-883.9560801713469,False
0.7578125,0.0,-36.62380940785053,-261.9177092405421,-106.58222940349583,False
0.76171875,0.0,149.52223456693457,-177.94439293298905,865.2295109870593,False
0.765625,0.0,181.90438579989916,-157.1147797240726,812.8779308214416,False
0.76953125,0.0,-336.17246464966695,-371.49233049601236,-130.98813706036492,False
0.7734375,0.0,-581.5746613723873,-428.8783533301247,-787.1507365580308,False
0.77734375,0.0,-3.0470504625526473,-188.7442622551641,-127.43000715218784,False
0.78125,0.0,227.9586209168551,-47.009998739534325,847.7346411778861,False
0.78515625,0.0,-343.26977619636955,-325.22599048099255,947.2074323317748,False
0.7890625,0.0,-245.5677204287111,-346.7841294956609,72.52664046744178,False
0.79296875,0.0,11.460658908436727,-253.4268015587759,-749.9456006405458,False
0.796875,-44.041218637992834,-40.87783284796893,-279.79005656362006,-287.25113407258067,False
0.80078125,35.6926640897146,-8.22513540457129,-200.08803565017112,736.3582938164609,False
0.8046875,70.87428306632746,87.85087493124313,-111.67934013453429,967.960817891685,False
0.80859375,-36.264290052252036,156.30896496669317,-122.54504613113426,125.2297425498839,False
0.8125,-155.82041515156146,-166.42265037737582,-319.7588679012864,-790.9067964405212,False
0.81640625,-98.48450486616146,-516.7483184241887,-390.5824175063405,-517.1339779533093,False
0.8203125,26.291387819337487,-204.02629998242878,-160.32127843860775,567.095848039665,False
0.82421875,68.35531668245432,277.47024417703045,30.638417513979704,966.5007968625863,False
0.828125,-33.89748522772413,-202.54313872188777,-265.6184350745585,137.31386049127605,False
0.83203125,-171.7286916843641,-749.4164676499572,-432.0281943256126,-870.5755684986708,False
0.8359375,-145.27146073982397,-280.8365634740557,-276.92395704414196,-781.5911284053752,False
0.83984375,-26.35823532894335,203.64834391997186,-71.83207135572633,317.5592299509565,False
0.84375,40.12488782530661,92.53232033353277,-125.37972886441818,950.1324479322465,False
0.84765625,0.21686467691908007,10.073001657804667,-261.6213145837153,321.1223628873304,False
0.8515625,-88.74627350959481,-151.6868098472927,-334.44559085283873,-731.7120871974882,False
0.85546875,-90.15558395847339,-528.733037426282,-436.2290304345169,-670.5707283581862,False
0.859375,13.144263878491103,-435.1602904132036,-373.2969688187527,420.43963873334656,False
0.86328125,75.02167022207114,-188.44514037959115,-304.48318161591703,-886.9612046327843,False
0.8671875,-21.449996562156215,-132.4590466859186,-293.86688668866884,382.983586444582,False
0.87109375,-148.2562185361028,-251.22626839134023,-380.78754874755543,-524.4624340642762,False
0.875,-164.96693784185356,-777.5031583259488,-580.0003306335177,-709.7757170808379,False
0.87890625,-73.34982243667116,-293.80968710849174,-305.12478371554727,252.42236796621955,False
0.8828125,33.20670608727539,400.97601339995106,-126.08453228135315,945.1410256042966,False
0.88671875,-7.616745859561206,109.92537947656302,-332.532959506585,601.1048948561541,False
0.890625,-157.25362260162663,-413.66265408753225,-411.87458108037265,-411.2971331387423,False
0.89453125,-190.68521230252705,-328.75935084107437,-361.19491669467703,-781.6800324569914,False
0.8984375,-46.110126504919634,44.528725487762074,-292.4282477521695,98.42136221964188,False
0.90234375,47.1787770045224,96.34138495576912,-294.875890681339,921.5873369033795,False
0.90625,-50.18586439807176,-92.72846501229984,-343.6978354953551,735.1568408794004,False
0.91015625,-171.20421382272505,-520.6502117009411,-473.0716605775989,-320.9320200776906,False
0.9140625,-215.74317462606186,-637.0533821540977,-425.7472615905549,-888.2999719737364,False
0.91796875,-168.40227380370348,-569.420804081617,-381.621503162623,-119.58047500458349,False
0.921875,-101.82778266897878,-582.3171823435495,-290.50206878705006,785.6323264567927,False
0.92578125,-96.73883512483192,70.62071224483566,-11.278335949914435,485.8399034347879,False
0.9296875,-211.51366172920615,149.53984050334597,-135.12780000038194,-573.8304943412732,False
0.93359375,-284.9846070402738,-289.2486156362678,-319.2886998773911,-979.0724798802939,False
0.9375,-213.5561275327704,128.9457073665937,29.820512628232052,-724.6504141763903,False
0.94140625,-153.72145928504858,826.4026918104106,307.2403010985149,22.9591258193027,False
0.9453125,-163.90082379071686,830.0490006034956,290.02611169253805,-316.8785367043788,False
0.94921875,-223.52323122937293,372.8062259350935,229.07857191969197,-953.3876727516501,False
0.953125,-312.4703086326621,641.6129019166717,382.1454438939986,-957.7785175586689,False
0.95703125,-312.02833994759516,-866.6130391832946,555.4334545735807,-996.8696048249099,False
0.9609375,-207.72695305338263,809.5983924765478,608.8103567308867,-840.2080436808653,False
0.96484375,-167.82823075498075,861.042729786714,599.0519233083023,204.85396263674124,False
0.96875,-330.3342921097665,904.3173468822577,644.7104834181334,457.27965808733654,False
0.97265625,-443.74300537034776,979.0314192557141,679.9502462205128,-137.8358019044491,False
0.9765625,-393.4605703416244,961.9130777611838,754.0010236509197,369.68402178313875,False
0.98046875,-299.79991300876975,967.3253813386145,814.2567740481575,929.7551784131883,False
0.984375,-22.286511527485743,967.3221770332683,829.6038658850256,978.307522435416,False
0.98828125,0.0,967.28515625,817.4801822805262,572.4654971391249,False
0.9921875,0.0,967.28515625,780.7080654048004,-258.49820646236947,False
0.99609375,0.0,968.6426634690307,804.5296732242712,-44.46492634869827,False
1.0,0.0,962.4058054676996,832.9237166338162,802.2843516990588,False
1.00390625,0.0,977.7965567801596,837.2298652543085,-861.3506546304927,False
1.0078125,0.0,942.6509300231468,735.1595981119751,648.6610953924248,False
1.01171875,0.0,898.0778316075139,672.024322213225,164.42930028876128,False
1.015625,0.0,960.1796987200544,788.7201092976533,216.7182749381226,False
1.01953125,0.0,971.2318402226059,796.4506969324849,846.9279013628308,False
1.0234375,0.0,964.3685397185552,731.5002821896774,-863.1365740740741,False
1.02734375,0.0,966.1550640163784,681.7508262257074,581.5090997028356,False
1.03125,-56.816766873909906,967.6613739136645,651.6553342267096,-107.10759184985261,False
1.03515625,-45.28921241902463,969.577240286775,613.7889574611929,-70.03480365382265,False
1.0390625,97.39839763299821,900.1836508051701,553.4895204691989,757.637872983255,False
1.04296875,194.80547887192142,873.2776619698404,491.39821691850517,-855.2669083832427,False
1.046875,126.4902679158009,837.6197323038257,452.8541073038257,786.7440070586078,False
1.05078125,52.13341575696694,303.96243382555156,270.1727625779197,337.1936686426694,False
1.0546875,54.594427261581004,-397.05447909345787,73.80590571143739,127.61379522398093,False
1.05859375,200.68317598201736,-99.37843882730857,240.57870533940903,780.4759952904419,False
1.0625,321.16876780994073,460.8681462764332,323.57710868743123,-869.8326701159699,False
1.06640625,242.0067556663662,162.53233524185663,106.0883297588309,824.4593246768625,False
1.0703125,74.65284077453705,-580.0486425166534,-243.9141052316965,437.1439423165067,False
1.07421875,39.2424684788089,-732.7634003258113,-313.72904356436777,178.687870739244,False
1.078125,150.46580177576078,-600.6925384622627,-293.8694295627448,771.2563142606961,False
1.08203125,251.78974787821608,-752.8264689677168,-406.6928340616024,-858.6153784452729,False
1.0859375,207.27388367620546,-946.9948815066766,-478.4197770885535,817.7686510725416,False
1.08984375,55.95503789991139,-988.5956204069395,-580.3041971597506,498.7037554715669,False
1.09375,-2.2725086227311593,-997.9779731234339,-662.7110802572878,191.23487560540553,False
1.09765625,86.77375213897207,-999.8974081196908,-756.5493188233362,767.9846430876826,False
1.1015625,193.78633387826193,-1000.0,-823.2053940769572,984.8688912771955,False
1.10546875,212.10063714704805,-1000.0,-823.5384329448569,972.5135138296815,False
1.109375,77.4604803424647,-1000.0,-894.8332067297408,581.7404536435097,False
1.11328125,-25.279468876046565,-1000.0,-958.8063759988236,-37.124205763383884,False
1.1171875,45.993718440612966,-1000.0,-929.0543427817332,418.90255096291935,False
1.12109375,187.71589652531625,-1000.0,-872.270841131669,954.9241774983958,False
1.125,228.20535365287037,-1000.0,-909.3759622156912,978.5429934103782,False
1.12890625,85.70396769770213,-1000.0,-975.4038801812778,544.2897920422599,False
1.1328125,-42.90787523681476,-1000.0,-985.9139975669193,-98.96768337865922,False
1.13671875,-22.356256779777546,-1000.0,-965.9550128338324,309.66323603556805,False
1.140625,86.95840558730062,-1000.0,-961.6495855264163,902.1096805674388,False
1.14453125,142.51510171576118,-1000.0,-972.5294574172676,992.5630137352564,False
1.1484375,51.79108473576056,-1000.0,-976.301454691988,696.7610507986769,False
1.15234375,-57.28920979305444,-1000.0,-977.0079003506387,-9.973464571365298,False
1.15625,-29.874290033154068,-1000.0,-977.4968082526126,181.2702140022459,False
1.16015625,116.11532831311496,-1000.0,-992.7252867559433,843.387824999618,False
1.1640625,191.56649386191407,-1000.0,-972.6711702850944,-837.5356415770336,False
1.16796875,87.97632711758234,-1000.0,-969.3594041243965,434.44032697625744,False
1.171875,-54.68822903913343,-1000.0,-996.8529130304139,-211.0481098173226,False
1.17578125,-85.58469493865734,-1000.0,-987.304060848026,-326.8972395801503,False
1.1796875,47.191877014835285,-1000.0,-966.1110491753499,489.32447633380184,False
1.18359375,136.25944394365337,-1000.0,-965.6233647367536,-829.4469670999358,False
1.1875,57.03672872868667,-1000.0,-988.2435315192813,99.9529891657246,False
1.19140625,-60.94993158154068,-1000.0,-999.0883108995905,-766.0518096754109,False
1.1953125,-97.00474083106704,-1000.0,-999.5590757348897,-952.9015239698558,False
1.19921875,1.947335929383371,-1000.0,-994.2131077449887,-40.350568212201324,False
1.203125,89.63420951613396,-1000.0,-984.8087923688352,754.4429326548463,False
1.20703125,38.7632886027165,-1000.0,-983.88671875,254.15977548432443,False
1.2109375,-87.01149196166655,-1000.0,-987.8775966070556,-767.8193561694067,False
1.21484375,-126.65266029876857,-1000.0,-986.0609623750993,-987.7942518945181,False
1.21875,-33.16011183423099,-1000.0,-994.1133911205865,-227.9473953657989,False
1.22265625,29.840450826559916,-1000.0,-970.3246868888651,675.1760533960002,False
1.2265625,-17.008289471673898,-1000.0,-975.1256467048371,347.1073327113763,False
1.23046875,-112.86043827919697,-1000.0,-995.7036442259213,-689.550793186228,False
1.234375,-157.6083725955662,-1000.0,-982.3207751482003,-979.6791685128032,False
1.23828125,-78.06570678703477,-1000.0,-976.094122410316,-334.1816808500887,False
1.2421875,21.01086483224347,-1000.0,-962.8813445826713,617.5905267409705,False
1.24609375,4.049604099187192,-1000.0,-968.006522193745,478.23446714768073,False
1.25,-110.61648708213653,-1000.0,-994.6712201785277,-529.0017219202621,False
1.25390625,-143.72543524262053,-1000.0,-986.1193902115291,-964.2008945964218,False
1.2578125,-59.6392740577064,-1000.0,-968.1206325341471,-492.4333862983561,False
1.26171875,32.65689336269327,-1000.0,-971.1620431289342,395.52840249343024,False
1.265625,23.740890956450745,-1000.0,-978.6115959072388,204.0659537822837,False
1.26953125,-72.86118309982888,-1000.0,-985.5510765522826,-709.6491035415265,False
1.2734375,-140.43670600210842,-1000.0,-984.5945072343092,-980.0248416778708,False
1.27734375,-81.05418021030678,-1000.0,-981.3367823462232,-867.6205165140102,False
1.28125,68.50986099546233,-1000.0,-960.5281172175793,-88.24987562450349,False
1.28515625,68.09083970887062,-1000.0,-968.4546380362708,69.41089701231436,False
1.2890625,-76.1890333278586,-1000.0,-992.3939370645664,-726.67153744347,False
1.29296875,-170.96542958007393,-1000.0,-993.8075743961224,-981.2688353679032,False
1.296875,-170.12100112487013,-1000.0,-963.0508390213439,-917.3759372326285,False
1.30078125,-27.976608812564933,-1000.0,-939.3342700089379,-133.70034648482863,False
1.3046875,45.71396309509259,-1000.0,-961.5631075540091,259.3898426996119,False
1.30859375,-68.93013558600197,-1000.0,-993.7714374656236,-502.48106436778096,False
1.3125,-178.55783358981014,-1000.0,-972.3137723412934,-948.6325228048057,False
1.31640625,-133.2221811881226,-1000.0,-932.572635528708,-808.047160275851,False
1.3203125,17.427101874274257,-1000.0,-944.7220446376734,130.24301802274954,False
1.32421875,61.13688275377376,-1000.0,-957.9373589137841,705.7857046003178,False
1.328125,-39.00090906313024,-1000.0,-934.6778877555307,16.710778986891228,False
1.33203125,-122.21056317988756,-1000.0,-958.9803166824543,-858.8122068462385,False
1.3359375,-85.10226244041435,-1000.0,-964.1768729374198,-866.8982851937297,False
1.33984375,57.928275444218656,-1000.0,-970.3667322522612,101.90480118063624,False
1.34375,149.76060104160302,-1000.0,-939.8012152512529,800.5136099259763,False
1.34765625,96.36546629591152,-1000.0,-920.4748506061694,228.05246951009894,False
1.3515625,-41.91740703110676,-1000.0,-955.5450404017448,-753.3114975955662,False
1.35546875,-42.23861092861945,-1000.0,-926.3304955348958,-743.3129072641019,False
1.359375,94.35870830829327,-1000.0,-897.2070547250601,277.5929964505709,False
1.36328125,116.80687694787338,-1000.0,-925.4179930984172,-797.2814037292228,False
1.3671875,60.600408982918786,-1000.0,-945.4925878410896,333.8611632856903,False
1.37109375,-19.763708041771068,-1000.0,-934.9711011982063,-392.95602598087146,False
1.375,-50.75600487762024,-1000.0,-926.2779462907932,-672.001882104443,False
1.37890625,62.527393643433356,-1000.0,-927.429702778372,193.87352802435373,False
1.3828125,153.5689441308134,-1000.0,-910.6154366940659,913.0557388429689,False
1.38671875,113.05908695494409,-1000.0,-917.2037273020687,669.9887477177932,False
1.390625,-6.929607049822778,-1000.0,-934.3384214290625,-303.905766582763,False
1.39453125,-42.2341945242315,-1000.0,-925.3472487471735,-651.725572747968,False
1.3984375,48.922779288639006,-1000.0,-932.8682063764285,193.95582831693457,False
1.40234375,117.13620405984538,-1000.0,-915.1133356792001,-843.4114587312076,False
1.40625,100.27615882673788,-1000.0,-890.4880226357959,555.3441743623985,False
1.41015625,12.561328339852096,-1000.0,-918.6452058856108,-52.140338769250775,False
1.4140625,-25.953477834901914,-1000.0,-962.9082607769816,-570.8029297710536,False
1.41796875,30.720120995156755,-1000.0,-933.3842393567041,91.19176791771065,False
1.421875,106.54584538096621,-1000.0,-891.9514431854642,866.6664239633624,False
1.42578125,77.74972498930515,-1000.0,-913.214251951812,880.4736259491689,False
1.4296875,-82.66076666870379,-1000.0,-963.6412943836705,-11.689058632662068,False
1.43359375,-131.49234433245235,-1000.0,-938.9289477377934,-749.0314641228458,False
1.4375,-1.773663810884301,-1000.0,-876.199531240451,-190.24807778983075,False
1.44140625,103.85574781901241,-998.7105292809998,-838.9360595359958,770.119706044124,False
1.4453125,93.3392445513506,-999.8265069249221,-837.1131886248702,903.307182649117,False
1.44921875,-30.369494295437875,-1000.0,-887.8383383529151,51.741221142975064,False
1.453125,-130.68935506260925,-1000.0,-908.5816893854349,-717.6363797107618,False
1.45703125,-65.62057762749801,-1000.0,-900.4318945085712,-310.5669577037371,False
1.4609375,64.6975192698466,-990.6246299769297,-848.6397056717136,675.2135331521573,False
1.46484375,107.21126025560716,-993.525610848408,-813.1411246505072,929.3109418447871,False
1.46875,22.794107466158408,-999.2695028417771,-848.8308345237731,110.34284905350478,False
1.47265625,-95.8983121696052,-998.2878674448451,-898.1515676564505,-777.964612903349,False
1.4765625,-73.11778216288272,-999.7615141630508,-889.7224421140684,-506.00923434348834,False
1.48046875,47.599902510846974,-978.5369895425935,-767.0731937293755,528.1638381126252,False
1.484375,81.10177591975798,-952.3722417764163,-704.490773056973,956.6962000779197,False
1.48828125,2.129721494377563,-984.5205623013811,-842.8935159544399,264.71519085551245,False
1.4921875,-103.20796872135305,-998.7428167779442,-874.3765111264744,-689.7332981135031,False
1.49609375,-104.9285759984416,-994.818841479252,-765.8769439341044,-538.5518084817882,False
1.5,-8.948899658392506,-953.6120284250253,-715.5801488659079,473.423969490274,False
1.50390625,58.08813137872028,-975.9072010786531,-795.0432664395282,-754.2276031003637,False
1.5078125,-1.0818335981422678,-997.3407708995355,-824.6221698545588,96.40863232553147,False
1.51171875,-85.22037141722178,-997.0430382188474,-851.6489779724072,-536.6223470539479,False
1.515625,-70.87365192240115,-999.5433795949704,-830.9318637131028,-515.668925319318,False
1.51953125,32.245749986631424,-1000.0,-816.9802035270121,364.78067897084884,False
1.5234375,94.0366186766638,-990.6653325146673,-742.0252568198832,-802.7619178462844,False
1.52734375,29.68602587583267,-993.0821799754018,-725.0080151771527,217.61370092777906,False
1.53125,-91.5949263627475,-997.4821170423643,-845.397248008204,-535.1133717210798,False
1.53515625,-69.9825229748518,-999.7514877314674,-911.0104064810854,-712.9099616894823,False
1.5390625,21.756401637841464,-976.527109083756,-744.2693572197946,190.29104821090266,False
1.54296875,95.2988151145114,-904.7594933596376,-618.7977568485302,905.9811364625986,False
1.546875,14.832834447848171,-961.5838524544232,-743.9004828526599,637.1786041168559,False
1.55078125,0.0,-996.0479148841899,-809.696090503346,-324.47206660033305,False
1.5546875,0.0,-996.6533203721812,-769.2043465535812,-694.5849570582259,False
1.55859375,0.0,-993.9990699859447,-698.3900683283427,90.15753425965534,False
1.5625,0.0,-991.9741100825796,-710.2248773433203,871.7746222899988,False
1.56640625,0.0,-998.8423649200942,-775.6343926178727,736.3528329921164,False
1.5703125,0.0,-1000.0,-836.5627494671668,-217.99986774659294,False
1.57421875,0.0,-1000.0,-825.7618357250351,-737.7190536576422,False
1.578125,0.0,-1000.0,-786.8805714907725,-6.395517599608866,False
1.58203125,0.0,-999.1546763276905,-754.1996424860966,850.571405142318,False
1.5859375,0.0,-999.4467259881287,-742.804095701812,856.840192765309,False
1.58984375,0.0,-998.239973329692,-783.2429024800617,-38.44405418283634,False
1.59375,-55.29483432394219,-999.7098775360585,-838.1936054297086,-666.6182544773774,False
1.59765625,23.829700485822542,-971.3775403515339,-711.8637543731667,-77.60556709850891,False
1.6015625,159.61306210085252,-941.3821686598576,-624.4258972701369,793.9393443859622,False
1.60546875,178.16766007914197,-987.7719013074467,-720.2104870267524,919.9563110179979,False
1.609375,31.05818481482615,-999.4988873048188,-822.1082756733942,103.89239203920431,False
1.61328125,-60.911884854549896,-1000.0,-845.6068294800006,-658.7748106436778,False
1.6171875,-0.38312950684428415,-1000.0,-741.8517544228184,-195.8572958361342,False
1.62109375,121.79577925426267,-963.5866861402249,-620.7407658952362,731.5489488002659,False
1.625,138.04086630278678,-979.3163967010175,-741.4227160266303,956.8854788146275,False
1.62890625,2.1008358224347603,-997.6030561995814,-756.1840105630844,218.0753345486005,False
1.6328125,-80.55685785107553,-995.7960189860364,-670.3827941193321,-613.9967533056557,False
1.63671875,-18.75852843495997,-999.3273935479435,-679.0523733041007,-271.7082687981269,False
1.640625,102.28877444919064,-997.5181963803957,-663.5900264163669,664.9371908723022,False
1.64453125,155.50828278738618,-959.917012180682,-597.4084539051519,-711.9792641458628,False
1.6484375,65.70862010358103,-977.9299500809705,-637.6144793353551,52.100898408854846,False
1.65234375,-39.43619346047484,-997.3272398093259,-771.1840296610493,-543.8049424578317,False
1.65625,-36.51587589951415,-997.5120126199353,-747.4292647188015,-432.0395934234248,False
1.66015625,68.12793153761535,-999.5620597919086,-652.461948498518,530.1712633876733,False
1.6640625,156.22332416050477,-1000.0,-648.0202349670008,-732.1936085882119,False
1.66796875,93.90090376344496,-997.500911927825,-745.2842051713469,111.70450411179172,False
1.671875,-74.53902883983685,-999.5731604840188,-780.0729685494714,-516.1237552901363,False
1.67578125,-92.30109111448084,-997.0756241214937,-665.392553894457,-499.445979973874,False
1.6796875,37.61899095384686,-936.7552547226381,-568.5279042410168,458.56338012367087,False
1.68359375,133.6625086418291,-959.8581367356994,-614.7418563890332,-741.1795153795913,False
1.6875,76.3448543479892,-994.5937945490696,-649.2399694252701,238.93377663565434,False
1.69140625,-40.19172685708611,-995.8861789937664,-631.1825782157154,-380.26199662538966,False
1.6953125,-77.69869761428222,-999.2372750259732,-619.1249587006508,-514.1131573519526,False
1.69921875,-0.595700737900259,-1000.0,-638.3062906761794,380.6471618339036,False
1.703125,72.83913091845932,-971.0737448817454,-556.5507750431614,-746.1656657741551,False
1.70703125,26.797428840982704,-974.0974898589807,-574.1243344359225,266.90187799838054,False
1.7109375,-58.83480212598546,-996.3102134961498,-718.516288654281,-472.46789632096795,False
1.71484375,-80.15227428539782,-1000.0,-795.4649998663224,-881.0575341164293,False
1.71875,0.7674099435464257,-859.49036364435,-593.5073364832243,-65.24392995057451,False
1.72265625,90.90980436999634,-610.556030086934,-396.3514054192385,812.6436823454593,False
1.7265625,61.893288764589954,-689.3535232637191,-488.31320729765037,642.451429681771,False
1.73046875,-51.372511057721695,-948.7340197778525,-600.6520642035384,-371.929524689849,False
1.734375,-94.15365434924787,-998.2084644784172,-565.354960349902,-848.835917061805,False
1.73828125,-8.360697453251035,-841.1693064806893,-468.0620080187454,-186.3482840572292,False
1.7421875,90.60268522161279,-759.4917184062366,-459.9345584359531,729.3679612063039,False
1.74609375,65.07145145488298,-890.5424311422875,-488.33191928818064,677.1624804723308,False
1.75,-52.45017340952148,-976.3400982303825,-540.8707490317332,-272.0721745515798,False
1.75390625,-81.14891826188585,-984.5317130973478,-600.8424313661085,-833.4689404905585,False
1.7578125,16.6921883116635,-997.3599152336827,-592.0590244091089,-242.78887701101564,False
1.76171875,90.92612716188964,-934.5751466723706,-546.6705622536363,724.7245297603587,False
1.765625,81.0871520563432,-676.5803316349915,-436.19747903171594,811.0387368995966,False
1.76953125,-33.99646639904053,-786.0637315800128,-495.24863521168186,-141.1677104500244,False
1.7734375,-123.36118572579906,-970.7727728908208,-612.5320129636985,-884.6129606429139,False
1.77734375,-36.27072718696529,-827.2300763108042,-513.7764896457162,-419.83611844215966,False
1.78125,95.64792108768286,-540.4676423943472,-370.35661021875563,604.1832748724489,False
1.78515625,106.49693353168541,-540.2274345075318,-388.65224110471155,885.3395434528538,False
1.7890625,-31.12813111134875,-873.3937716284453,-660.8263796847308,78.57245934998173,False
1.79296875,-119.9644634617735,-989.7684144965012,-688.3440405277913,-721.3518888364756,False
1.796875,-27.71742062415973,-873.8205937003484,-488.13793449989305,-411.4822242231423,False
1.80078125,110.56784695272871,-891.8439276110738,-480.2003042305812,574.6539747162042,False
1.8046875,106.43439085131088,-983.6794759900386,-601.0544344519648,847.1620603171026,False
1.80859375,-15.0548959065422,-1000.0,-658.2921095803031,141.14240564650436,False
1.8125,-98.61419312209729,-968.4679641667685,-561.0242949462234,-697.7210836286972,False
1.81640625,-40.62966706517753,-897.1918650786072,-519.2787987762024,-541.6600619537983,False
1.8203125,78.22040030289372,-964.0414265893327,-672.0453001340677,455.94487420170503,False
1.82421875,107.6057413567893,-894.6757292112259,-553.1602932695246,-739.3204738679419,False
1.828125,18.337967986977745,-836.6390565653825,-477.8400323860553,16.693231144872357,False
1.83203125,0.0,-962.4767317453709,-608.7018975533183,-564.7065454752047,False
1.8359375,0.0,-979.5831415579356,-589.237896903456,-561.5138586769694,False
1.83984375,0.0,-761.7523504820326,-468.0321850841074,348.99546494950494,False
1.84375,0.0,-671.0436626798918,-453.54796423360733,-744.9812421703127,False
1.84765625,0.0,-891.9407602613365,-632.7182933199139,108.21378405167161,False
1.8515625,0.0,-989.7720550460643,-690.7931754854702,-566.9810390629774,False
1.85546875,0.0,-970.5090537918602,-584.3118552443626,-711.0743404920863,False
1.859375,0.0,-806.4994791030067,-503.91684340241704,208.40000711399193,False
1.86328125,0.0,-832.6495088303593,-544.0282642156563,898.7247874526399,False
1.8671875,0.0,-969.5743457514667,-595.2665574581373,534.0446290793253,False
1.87109375,0.0,-980.802009487869,-605.0876859186885,-466.6259482139583,False
1.875,-30.233388643893267,-996.2525463377507,-630.0585727636999,-758.6913013184993,False
1.87890625,56.97821137054635,-980.7177397176557,-655.3395940441087,41.65722709963029,False
1.8828125,134.67959989343987,-895.6970199924376,-605.7576487449585,836.0744001695796,False
1.88671875,94.99375496547088,-950.5437309975249,-607.1322722663173,622.4562405942522,False
1.890625,-31.024299720422874,-994.068057168174,-650.6207414140797,-379.6308541233807,False
1.89453125,-58.40906671110127,-1000.0,-748.9033590455601,-832.9657074554636,False
1.8984375,57.49672111814765,-950.2111578427703,-640.0701145973385,-100.6217461842266,False
1.90234375,173.56631983698975,-715.3557828923246,-466.61324735318385,787.170126688157,False
1.90625,147.31561392318034,-710.440684346926,-551.83050412898,716.3010440857422,False
1.91015625,7.652972311770469,-944.8404221796126,-794.3728980302359,-226.38712696900006,False
1.9140625,-88.5998323301149,-998.3791592825715,-741.4559732873992,-800.538601312332,False
1.91796875,1.873331315315042,-941.2680284788853,-586.7581455207633,-172.4911480932592,False
1.921875,101.16299715909092,-960.44921875,-602.8053977272727,747.0259232954546,False
1.92578125,84.81311634915058,-972.4605674995416,-595.5841280784039,814.5132799132242,False
1.9296875,-10.173366551060312,-976.8226500909063,-622.8977915113365,-77.90594037424364,False
1.93359375,-91.6853906297745,-995.9094546385137,-667.8216658295391,-770.9465882440568,False
1.9375,-20.67753529088243,-998.0002072002567,-661.871023091848,-281.49813901704954,False
1.94140625,125.43125592036911,-999.561492821075,-633.8554577686701,689.0871900877743,False
1.9453125,126.44112194642202,-965.8995343723265,-573.8572237457223,881.3845966183391,False
1.94921875,1.6716985825490411,-944.4329790342541,-558.3954892516654,36.701275362097476,False
1.953125,-92.33886927633992,-989.6978415480046,-679.151026229145,-767.2620536805598,False
1.95703125,-56.151567942587384,-972.1907953911788,-653.4900352908825,-440.44591977817163,False
1.9609375,67.20914038150094,-686.5767924394977,-441.558735313665,561.3255348385076,False
1.96484375,105.37350472072843,-613.3764952792716,-444.690660520044,896.1042293678196,False
1.96875,-11.80365830838322,-895.9803050149701,-625.8755145958085,104.69018993263467,False
1.97265625,-154.22347168326814,-992.7570619958445,-634.288921183696,-773.787926240528,False
1.9765625,-136.79541042481515,-990.0988988113427,-567.1504738205097,-615.1472405350486,False
1.98046875,4.825134202746881,-988.9829081272152,-539.7366766415607,367.79304752429107,False
1.984375,64.9513133193027,-972.1753095302664,-540.9910363701644,854.134906353129,False
1.98828125,-27.298302811602397,-994.1248393383701,-607.6447243781703,209.62675295445524,False
1.9921875,-138.66939838402897,-992.0300707727329,-600.6412883750153,-722.2625277380989,False
1.99609375,-103.6131738239473,-929.1693781798111,-518.2743055025056,-685.2619870764072,False
2.0,38.20063764208018,-955.8990485975312,-608.1014822934491,286.76813909343684,False
2.00390625,91.71567880851616,-805.9083374075658,-535.7540759831633,903.2498589137841,False
2.0078125,15.375548078098262,-736.5149752314531,-482.5729784129797,387.0252237667288,False
2.01171875,-79.9433649850272,-942.2346839095826,-612.5194500836491,-590.0090070777059,False
2.015625,-18.554570399154628,-951.5861192405121,-558.8352997687961,-681.7095388475028,False
2.01953125,0.0,-701.7241045919147,-402.9501700673776,211.5920827476624,False
2.0234375,0.0,-525.7514351243583,-342.53783075653877,-724.2442680961256,False
2.02734375,0.0,-740.6394010591731,-472.078536561144,134.39503495882468,False
2.03125,0.0,-961.563308033259,-609.1262940467642,-481.1690653836165,False
2.03515625,0.0,-991.6874615653456,-590.2471945089532,-741.7033665892562,False
2.0390625,0.0,-986.5745930472378,-488.89747979558786,96.8488135159497,False
2.04296875,0.0,-989.8104300193271,-491.5969551159628,854.989152355925,False
2.046875,0.0,-989.927334297085,-557.9124418979925,627.9801448205665,False
2.05078125,0.0,-943.545371273987,-487.34154060418325,-338.9043688504553,False
2.0546875,0.0,-911.5643966666412,-451.90646031633867,-701.4183581097598,False
2.05859375,0.0,-907.5373032074982,-451.8377863087417,78.40796083437726,False
2.0625,102.67323470448471,-645.1980504714879,-354.6304492593555,840.4138803552867,False
2.06640625,64.33167387933142,-500.4035041900935,-339.64337057118195,784.6056019583053,False
2.0703125,-47.90688353626864,-775.4728904244837,-489.06317435567405,-69.93199630285994,False
2.07421875,-93.70037513177596,-968.1325389216526,-598.3290056549074,-556.1553576475891,False
2.078125,10.047541478244923,-800.6886305304326,-489.2710609035077,59.327663812331934,False
2.08203125,129.91850182194585,-690.4644816048402,-380.66436687381594,820.2996387142485,False
2.0859375,87.45697849509595,-813.6449425472837,-438.49345123059766,869.0792466981636,False
2.08984375,-25.22396541549533,-964.5651285961468,-649.2766168337102,50.1796342644227,False
2.09375,-91.93226166694677,-936.5705557603281,-560.4257222850333,-636.8577772165098,False
2.09765625,-35.188356491383516,-611.4536267683634,-327.4476604512955,-151.36127942816552,False
2.1015625,83.02371752391065,-396.61546462483955,-303.02857318149177,733.1156682568906,False
2.10546875,90.62707677676607,-539.9445333506478,-339.7202175889147,905.622789545649,False
2.109375,17.92115189871039,-628.2905335966152,-378.90457669805505,151.80579810279266,False
2.11328125,0.0,-664.0664983920497,-417.3122378964495,-603.7980188981911,False
2.1171875,0.0,-719.8929833599432,-440.75635222185724,-239.3419629079325,False
2.12109375,0.0,-586.5532523756417,-358.86857679204354,664.8495267813493,False
2.125,0.0,-384.6848465764988,-322.46469144372975,939.7939938332671,False
2.12890625,0.0,-670.1040107094843,-477.3193299697507,262.5635147560956,False
2.1328125,0.0,-950.0773825666137,-578.366290850547,-579.4136053424647,False
2.13671875,0.0,-848.0426020914813,-471.01517861235027,-364.3556835889758,False
2.140625,0.0,-474.7315422943531,-341.98740704065574,575.8609064180621,False
2.14453125,0.0,-473.0959836092184,-381.09262448247677,-641.3782493201538,False
2.1484375,0.0,-820.5368414066797,-555.9129030148048,-32.95571683256435,False
2.15234375,0.0,-960.5714382562331,-592.4702758341481,-510.37373865650204,False
2.15625,-50.682000346197846,-720.9138835213589,-422.7279120130652,-431.8513835213589,False
2.16015625,37.16395340287539,-414.9844542565544,-333.6433868044521,474.2890364790228,False
2.1640625,104.94346870416769,-583.9035716741016,-435.82163017905157,-628.8425144371793,False
2.16796875,22.404747706334405,-890.5114566304314,-505.3158588545805,40.826495466143115,False
2.171875,-109.37765564845088,-875.8635631664782,-453.9625437794091,-479.4587382650177,False
2.17578125,-101.08260395022306,-926.9407351952576,-481.10453318844344,-551.4261047217808,False
2.1796875,26.470548918357366,-988.8847088120264,-570.773090893119,354.64412639788554,False
2.18359375,87.42362007654464,-717.4978299937359,-435.73636262069914,-660.4058962101999,False
2.1875,-5.082224843788197,-529.6983254972806,-347.3114931213334,130.415463966252,False
2.19140625,-120.56709377673715,-732.281087189849,-456.9160057179307,-426.4265523303336,False
2.1953125,-109.79023599822781,-855.4169499358347,-433.67133074126133,-670.6853888489978,False
2.19921875,7.436054372402836,-749.6447995600098,-357.285094185407,167.99190486739178,False
2.203125,88.79301819620252,-605.8519580696203,-315.07120253164555,870.5951674578059,False
2.20703125,41.18236391621853,-623.7152032472195,-373.4292286994317,602.157723317954,False
2.2109375,-102.47051871027624,-892.5247999010726,-464.57094750733364,-362.692167303902,False
2.21484375,-159.78296727954657,-939.6971761087601,-416.41743356224026,-771.1979827097592,False
2.21875,-57.65899413883457,-720.5756759247234,-334.0671527417038,-34.71848883532971,False
2.22265625,58.90180522030066,-742.5449681847348,-376.896431381386,796.7474095193718,False
2.2265625,31.674362748655504,-904.8000765350944,-432.6080861260924,640.3863649601999,False
2.23046875,-89.43298981376803,-907.3606578273955,-432.33565892546136,-323.35712635205334,False
2.234375,-147.96306392844048,-941.5227703056252,-444.1470283950287,-830.301945438539,False
2.23828125,-52.03574757073886,-928.2718931908116,-421.9202681449765,-163.54282647016134,False
2.2421875,72.81424019570399,-709.1036106315693,-342.61135342825713,749.7709577807993,False
2.24609375,54.36996649262055,-653.5971434696419,-302.71906678749315,735.2339608128858,False
2.25,-84.04098097899121,-811.9501258455026,-401.90463808569257,-177.93700165740904,False
2.25390625,-167.61952580707998,-945.2637106677412,-558.332078040014,-837.1292130110614,False
2.2578125,-72.71824894776644,-985.9243769192282,-513.6696967714954,-333.48854454710033,False
2.26171875,61.80307348323963,-873.9491643208,-364.66818002123694,646.3051823760161,False
2.265625,69.19098086882792,-715.0544712287643,-353.5254717863909,783.2881654279211,False
2.26953125,-32.38919360752918,-863.5405048738006,-567.3799179646917,-107.82466301640898,False
2.2734375,-117.48881166356026,-981.6211522339433,-586.414293332544,-847.1211517565234,False
2.27734375,-79.61857846301332,-805.3537395349548,-391.6689682286574,-450.13220355085855,False
2.28125,26.634260603190114,-642.5011363289128,-335.42379458419913,556.9139049417894,False
2.28515625,66.27830145441213,-841.0879063798582,-504.738512321254,874.8374385083109,False
2.2890625,-10.789275919757984,-966.746623479802,-527.5857868648017,96.3448166213409,False
2.29296875,-114.13201234417014,-918.5935733546199,-440.3562245057749,-735.011221755836,False
2.296875,-96.02454859969205,-886.6207667498804,-435.0491633001226,-493.20426599684583,False
2.30078125,32.56764021725846,-806.4993299001559,-377.655840587377,467.46032039700856,False
2.3046875,88.05073971446468,-572.0203505026277,-314.29593448270595,902.4289097829076,False
2.30859375,9.806205695428986,-632.5540367766133,-395.59004808573695,248.10607507333168,False
2.3125,-88.82532118002506,-906.6064157703355,-532.0753603308532,-636.9207706601784,False
2.31640625,-72.85312008257455,-994.3431405734386,-535.8983694676576,-520.1543725460615,False
2.3203125,61.31492433848693,-845.6134894050965,-376.608815702533,420.4999410386366,False
2.32421875,137.42450932553626,-558.1475439539663,-291.60297694302693,-636.413600329249,False
2.328125,73.7856107537888,-756.7801987212783,-473.00273752597167,-20.175528217428564,False
2.33203125,-34.326711989320415,-963.6018153093106,-606.9004707170903,-509.97952220711363,False
2.3359375,-48.10608700883036,-830.3951020055457,-446.60982902636886,-547.2654996772641,False
2.33984375,41.25722933153568,-537.3770285573515,-330.05297093658334,350.8539491223113,False
2.34375,109.83221891098599,-613.757392953681,-415.627316513418,-627.9823355322271,False
2.34765625,69.20234943129736,-782.1657809730964,-469.8990304555732,79.32463696987293,False
2.3515625,-33.140553148298096,-862.0629936522243,-484.2162877066273,-375.04016295297606,False
2.35546875,-51.03871443958931,-971.5939257012773,-526.3698134701766,-581.5416557649116,False
2.359375,54.841229222683936,-952.7055865772427,-515.7629743644586,219.61926236708632,False
2.36328125,135.74051653018822,-880.9851751558299,-480.8559375763872,-667.6040011610853,False
2.3671875,79.79022317881807,-936.3765025323902,-483.66383953125955,161.38723320143004,False
2.37109375,-26.729519400436942,-990.4866914415791,-571.9757117376558,-334.15000988259294,False
2.375,-47.08103654554204,-1000.0,-692.1460122066732,-652.6175503391592,False
2.37890625,50.975213706227464,-782.9877656049472,-508.70971642386786,112.06840986524469,False
2.3828125,130.45840192266562,-483.4206972049927,-318.68252862609995,845.2639583269678,False
2.38671875,63.9099404561843,-596.8106199202518,-437.94167312774994,698.1705148305732,False
2.390625,-65.29214884745127,-889.7838385494753,-538.115483273988,-175.6615442278861,False
2.39453125,-106.90572265744362,-932.814553031229,-503.4907797412608,-632.0716481639216,False
2.3984375,9.804057305670995,-717.8802602129675,-431.8981930609875,8.769846347164503,False
2.40234375,126.3045500030555,-604.2867775681374,-425.55948843497924,803.0457721599242,False
2.40625,68.34648387367842,-733.3853076491168,-455.43173575673774,786.2417007406191,False
2.41015625,-66.50188318297788,-917.7245198587601,-577.5956307958782,-65.50144968566667,False
2.4140625,-105.1618883295649,-979.8603379560316,-599.6240855020931,-665.7610408136763,False
2.41796875,-17.68558089325002,-955.5862800697457,-554.2145866436473,-128.1701428145817,False
2.421875,68.90446922360059,-948.29243594934,-590.4751378788804,745.5283057511916,False
2.42578125,43.93636087600831,-866.0278469506234,-523.3070449996944,841.7971733874664,False
2.4296875,-78.07877695677747,-821.005726286057,-536.0990329745463,16.801315276844093,False
2.43359375,-150.47906704503788,-931.402929544274,-648.0051067224548,-692.5531320658151,False
2.4375,-37.787891891283465,-834.41705116348,-571.159444317295,-298.11402319831313,False
2.44140625,0.0,-530.4548272408183,-408.134525721477,627.9603020540516,False
2.4453125,0.0,-526.4415456566243,-423.71742324996944,879.9494722599915,False
2.44921875,0.0,-852.6712860665068,-606.3278898563069,103.37215153853208,False
2.453125,0.0,-987.1804986364887,-614.3820013635113,-719.1323536994316,False
2.45703125,0.0,-975.9724089464679,-533.234037941518,-476.2641125336104,False
2.4609375,0.0,-941.2982868170568,-503.6700917275255,486.99157039700856,False
2.46484375,0.0,-958.7179746700074,-613.2196031494439,890.491441770044,False
2.46875,0.0,-970.4583577613206,-595.5554530428838,180.77810618965407,False
2.47265625,0.0,-955.4312284670445,-528.0423177481208,-708.0685977414747,False
2.4765625,0.0,-987.7741106621241,-561.8970186079198,-587.9411121593131,False
2.48046875,0.0,-967.4512983912857,-523.4809452151063,378.6939174789171,False
2.484375,51.93287611251428,-781.4012500281887,-456.7415229512448,883.0513992873895,False
2.48828125,-16.654108532831216,-750.5093175663804,-483.73910647037707,267.86386083781474,False
2.4921875,-122.03510277896602,-942.7979291432413,-618.6534776223723,-673.1503975475893,False
2.49609375,-125.19065140293651,-970.4876462426664,-604.3232003510205,-707.685295617399,False
2.5,-26.23040668540699,-814.3738732889269,-482.48656540271327,205.58239981819838,False
2.50390625,42.05401338303594,-862.8501397885602,-486.5484543051821,862.4454070291494,False
2.5078125,10.278077111852959,-974.8262264235623,-607.5491450318555,406.5669068554055,False
2.51171875,-98.80918933138291,-1000.0,-728.6085428570337,-565.5974110948575,False
2.515625,-131.58394928463395,-971.0021987575624,-617.4257027144188,-700.2590480628209,False
2.51953125,-29.46200262390002,-788.8942094689562,-475.57280845147886,181.88783901590386,False
2.5234375,64.8266990981941,-786.1528355225967,-505.872803256585,-674.7481993006327,False
2.52734375,32.78848577670496,-865.3803461485578,-521.5454250756234,113.6264842986127,False
2.53125,4.25648314790576,-930.1860070353404,-554.2145574280105,-355.12107329842934,False
2.53515625,0.0,-986.7532934440505,-611.3354657802664,-641.166367624366,False
2.5390625,0.0,-1000.0,-628.2126781731239,142.50567652316067,False
2.54296875,0.0,-945.874005534252,-537.4519834889086,-667.4882268241263,False
2.546875,0.0,-827.1301165095637,-465.533442789813,201.7548047543387,False
2.55078125,0.0,-908.997182572725,-617.3025652386482,-227.30439625603503,False
2.5546875,0.0,-986.8713095438156,-774.0096878055488,-633.4201660753025,False
2.55859375,0.0,-859.864027218666,-584.1138453216665,41.24347366933512,False
2.5625,0.0,-551.8132562794108,-379.0925745202591,814.5008997528723,False
2.56640625,0.0,-600.4331631172086,-455.86753888108046,784.3574070749817,False
2.5703125,0.0,-905.0901082406501,-566.9816603901858,-88.88031654852114,False
2.57421875,0.0,-975.0798723570032,-544.7377102557443,-656.7083231483745,False
2.578125,4.1108316875716095,-787.2951120876802,-456.6221749589188,-72.2856179426974,False
2.58203125,58.67798478176179,-664.4874932683788,-444.4042383910566,763.9843463548033,False
2.5859375,51.29802899453034,-786.3064846184991,-466.79705404342116,862.5335646733485,False
2.58984375,-17.390498961134192,-921.7078433413285,-518.6581085958506,55.09020372463942,False
2.59375,-60.106932519555116,-975.9287250213885,-584.0344444168602,-592.0502059589649,False
2.59765625,-6.6016436613908525,-996.2680679578648,-594.3566813966634,-108.49690536390858,False
2.6015625,69.96963184853023,-960.5397251993827,-601.41711674204,730.1234050812045,False
2.60546875,72.72212798482951,-722.5045796508341,-488.06784328403813,907.0723260186232,False
2.609375,-10.059238266927409,-743.11736486151,-489.8064873731973,190.32149220468716,False
2.61328125,-91.73257250099303,-947.6521859627078,-615.2815202196896,-547.4291055250856,False
2.6171875,-28.32389336842266,-874.049667361196,-552.8555575555368,-196.4559608090662,False
2.62109375,112.93416569909557,-602.1472200791371,-402.53937282296505,674.2541029470178,False
2.625,141.0423941917383,-567.1667701990807,-441.6864171069126,941.8621190753342,False
2.62890625,49.25863843650697,-839.2353976335248,-638.8714365375214,301.66268657571493,False
2.6328125,-54.16317134121188,-981.5219729248151,-709.7061587117277,-536.6919352636284,False
2.63671875,-34.134004378895746,-977.0803216091725,-632.2882332215534,-355.67048976602604,False
2.640625,84.02605972905462,-796.4406672039232,-521.1654286371761,550.5790626527744,False
2.64453125,117.1875,-846.9076853630684,-620.976722435682,950.8644762321254,False
2.6484375,13.920909179448785,-971.3794201925721,-713.5090330240926,394.1655761599395,False
2.65234375,-85.90154211292246,-976.5588296098667,-636.215787189467,-469.73906569890914,False
2.65625,-51.40338786742239,-959.9211326119836,-578.9821478359509,-417.4321896579382,False
2.66015625,39.35700842932657,-960.0175117636275,-631.1575834339098,475.57913426576636,False
2.6640625,71.73258563004156,-850.2691693656808,-569.5182522419641,-572.8975499763199,False
2.66796875,15.536164622547822,-888.6845870829004,-544.5473758441301,39.809379631256434,False
2.671875,-90.50190373938969,-977.7906605856597,-644.6024096441807,-373.9487169548389,False
2.67578125,-114.52127489419728,-964.9762421316384,-626.6580614419728,-502.1257825391126,False
2.6796875,5.608013398313375,-770.7728700863939,-495.3592394127353,321.2072148179693,False
2.68359375,99.94891009800477,-650.5415195417532,-444.95219713433454,-585.8528773145317,False
2.6875,47.77135594903447,-836.9046931335554,-568.504749373625,78.10655965457727,False
2.69140625,-83.18299578151736,-976.5151757478307,-691.2622183699738,-323.48784990107856,False
2.6953125,-131.15906384640653,-974.6187150984691,-610.3627825543911,-605.1307757020412,False
2.69921875,-39.4572069405402,-821.1397494118187,-446.2382172757272,138.74074282724268,False
2.703125,34.50851048796138,-813.413662422085,-467.40367575165,847.7986404989612,False
2.70703125,-0.45295217397946885,-957.7645670373992,-569.4839376833293,599.4537360975312,False
2.7109375,-80.16465736525299,-986.3011507730383,-556.8280123288927,-372.0953770471767,False
2.71484375,-116.53285757119721,-995.2845035770488,-551.1090486635244,-787.6024307412301,False
2.71875,-35.67038108980117,-997.3275242544017,-570.3321797988532,-65.87597738127329,False
2.72265625,72.95559866390637,-772.4326486394609,-459.5707422042107,769.1554975401822,False
2.7265625,48.35428570337326,-710.2956088823026,-430.91506603672696,655.7228090243827,False
2.73046875,-89.62103359508677,-927.270561522244,-599.6410040714372,-217.7814342840993,False
2.734375,-130.4954616459912,-995.9969531059032,-729.03267080176,-670.9198020425935,False
2.73828125,-40.70160203037155,-998.6385176683574,-654.3949847989489,-57.486493789721294,False
2.7421875,18.95464605994867,-946.6943920343437,-478.9439900467489,759.9434639299683,False
2.74609375,1.379141632417646,-842.0338688084398,-451.2672753028937,774.4133463263155,False
2.75,-79.61323732736494,-932.0456263081306,-679.6376394543663,-79.11546735593367,False
2.75390625,-126.63203024741811,-992.9614574103215,-659.8515665580695,-751.8971176725587,False
2.7578125,-32.4732394184643,-925.0251361601687,-460.5803302027316,-275.6473575760816,False
2.76171875,79.01813336439746,-925.0547063580879,-441.7173786112045,665.951650727206,False
2.765625,83.14359421851574,-903.4345424943779,-418.5147465329835,832.4520064186656,False
2.76953125,-34.12687291844904,-856.7029402384808,-421.7314756286666,34.95883685223657,False
2.7734375,-115.0779507310701,-930.3067515125588,-487.1145135461865,-709.3164707056317,False
2.77734375,-62.688879266224646,-967.0788809944848,-491.3216690887772,-370.45000888001096,False
2.78125,50.67741116169641,-816.1738360024291,-389.4601251699615,575.7078228122708,False
2.78515625,101.96606904829198,-798.5779867869255,-407.42510952013566,882.65811432489,False
2.7890625,3.602789946681739,-947.5412156639575,-522.9528889158366,148.4801992464403,False
2.79296875,-99.98913272847409,-998.6289991081795,-622.0966899520289,-669.3880001451357,False
2.796875,-66.22518848539477,-963.5758419778172,-605.1931593360425,-437.35092562179176,False
2.80078125,50.90765465531993,-634.4728293253071,-378.35339375611136,507.5355198275072,False
2.8046875,106.27773809887557,-430.49553325898313,-309.44152846950624,931.0846694726229,False
2.80859375,28.111083208567578,-703.6107747952824,-455.1412637878881,339.98351468925694,False
2.8125,-69.6608524040771,-949.0530381214724,-545.5700042970158,-504.99088291476517,False
2.81640625,-79.53559690861036,-935.8102317778355,-520.3834446040088,-438.53623999327795,False
2.8203125,28.87131479543511,-716.4750939562455,-478.56026376497186,442.01418462402216,False
2.82421875,116.64914933313983,-702.4840040447018,-533.8730048620447,-534.9835433344535,False
2.828125,53.67733907128452,-729.8640976381081,-560.732830069054,-26.196271159252092,False
2.83203125,-41.5237203886054,-848.6674872425594,-615.8023902535446,-351.8671125404877,False
2.8359375,-41.79799693687363,-971.3736016369775,-634.0423934589649,-400.1936594334362,False
2.83984375,41.28659065822842,-970.6607838185193,-620.0249857728857,435.1029341275055,False
2.84375,105.84060046061477,-670.5645717638566,-494.05606199202515,-534.7804011473356,False
2.84765625,58.81521317755439,-477.64394569443596,-428.16363520914814,79.35805636610849,False
2.8515625,-35.07863941999206,-702.0588019050965,-537.1307992200868,-283.2256830924591,False
2.85546875,-47.29760616864764,-908.7748652243491,-631.1091849868614,-483.721919352313,False
2.859375,40.42669172932331,-687.8890683740601,-517.8505639097745,284.81349859022555,False
2.86328125,137.6174930487656,-373.34902214846613,-401.608105540363,-562.6469856659437,False
2.8671875,108.6744030931064,-528.9433239244026,-520.9903046793834,188.04127810265527,False
2.87109375,-17.6946751443718,-888.3492883100862,-677.0592733572935,-109.49742837745964,False
2.875,-47.516533052737714,-926.0059059234447,-648.8672376290943,-459.17435829985027,False
2.87890625,66.57645021082865,-862.8483196250153,-579.7146592271907,222.89018577364948,False
2.8828125,156.86070962745967,-866.9175190204106,-586.9427972130134,-594.5808599001621,False
2.88671875,87.6552868052585,-939.3492264842031,-700.806648741139,258.7721140919091,False
2.890625,-53.34592011236556,-955.1580928409924,-686.3587872960462,-62.01183810498651,False
2.89453125,-87.08035383501894,-930.1425408862442,-618.3893450371241,-532.3458279703159,False
2.8984375,5.402305078984355,-928.177778775055,-615.6104625626375,89.97686064875643,False
2.90234375,111.24168215098692,-760.550443714098,-559.0889836779669,826.9332106204931,False
2.90625,112.27844973644578,-702.9961349303463,-548.5090067300451,829.2229562782379,False
2.91015625,1.7997538422757202,-853.908034357049,-622.0862165519586,35.184447615573845,False
2.9140625,-79.64140510419213,-975.7778901571285,-758.6738252604803,-575.8465133066487,False
2.91796875,-37.48874482476778,-982.0325987113481,-724.8024316907541,-89.66301671160784,False
2.921875,67.27070147780053,-763.5654933672768,-533.0174271317148,734.498719004003,False
2.92578125,76.25482671565632,-815.2699905279883,-562.1005188599976,858.2496018317648,False
2.9296875,-34.807614084270355,-963.6456646449524,-782.5138499526399,95.76268313829132,False
2.93359375,-107.82732388933024,-1000.0,-766.6386819008188,-638.6625653110486,False
2.9375,-38.711715694512336,-885.4936904179907,-579.8032504659618,-308.14139460095333,False
2.94140625,73.58951051087753,-704.8752215228551,-527.0800948346981,609.5369647167563,False
2.9453125,70.18264177462723,-791.129012237228,-536.5573581871791,868.5169951952456,False
2.94921875,-31.227680617514054,-908.7761482904547,-582.8848768638475,88.76275188676357,False
2.953125,-16.31415123131179,-957.933281023933,-644.4332876175548,-733.8928413989029,False
2.95703125,0.0,-991.1858729528233,-644.2757109737839,-515.493590159802,False
2.9609375,0.0,-909.1075970881202,-553.7578440097165,448.2559133234539,False
2.96484375,0.0,-720.9978603117552,-476.29357678145817,884.1852855909674,False
2.96875,0.0,-795.3008270823149,-543.8254204160046,208.09440454274625,False
2.97265625,0.0,-958.659162500382,-699.0247683081001,-669.4156905020167,False
2.9765625,0.0,-961.3007270628361,-665.0421657296505,-570.1442691464495,False
2.98046875,0.0,-777.1236892435377,-498.5827788896358,350.33177105612924,False
2.984375,0.0,-815.7480669266378,-538.7353479818504,880.0383320474823,False
2.98828125,0.0,-961.5568330252383,-633.305913514422,302.49527712318206,False
2.9921875,0.0,-1000.0,-631.2453093490284,-625.3852480578556,False
2.99609375,0.0,-963.8987270551974,-548.6563731743461,-635.9810765055915,False
3.0,47.1393142812332,-798.4573848359921,-471.6556774940999,253.13095728214444,False
3.00390625,99.21598096431191,-823.0643485700318,-511.87546309734785,-573.202442289477,False
3.0078125,31.291774245294548,-960.1115634930335,-595.2946922360059,-48.23349845697862,False
3.01171875,-92.9854119561232,-993.2375851717184,-642.0104726839404,-416.5818450562209,False
3.015625,-98.69559322292838,-977.5316624908336,-593.1237443855414,-611.7486126176362,False
3.01953125,23.884842489611344,-992.6544167074065,-596.0608318947079,203.31226797390605,False
3.0234375,121.10138871913958,-944.9131382149841,-536.300744966084,-589.7452821360914,False
3.02734375,77.82350930395991,-845.9778801790516,-460.3513476610242,35.58556988664145,False
3.03125,-39.34441647824494,-918.9516383142875,-543.104456619714,-360.49073041432416,False
3.03515625,-81.87012076814959,-988.2806532250672,-709.3683399917502,-667.2760136580298,False
3.0390625,3.622185131997071,-953.5478747173674,-610.7414952410779,76.17426209973121,False
3.04296875,104.04818695001222,-688.8564694222073,-386.67184349028355,820.4776873013933,False
3.046875,66.52402638190955,-628.6612330626346,-422.9455031855707,670.1041479720029,False
3.05078125,-56.82347683940357,-873.8827179708506,-513.0194806434857,-204.5329114214129,False
3.0546875,-109.07828350342214,-980.115101174835,-498.84559857003177,-657.4928434750061,False
3.05859375,-28.934751970789534,-781.3465581841238,-422.24070367880717,-38.41667016774636,False
3.0625,94.31812973600587,-613.2843532296505,-402.89361842306283,765.3977481055977,False
3.06640625,112.27914553287704,-835.9372612900269,-494.64227400849427,763.2254873502811,False
3.0703125,16.302697613664137,-981.7873838914691,-532.7066082559277,-102.74208533213152,False
3.07421875,-59.10864741200196,-920.1336107461501,-485.54993048765584,-684.5816512237228,False
3.078125,-10.350941854069916,-912.1813460568932,-486.12975701234416,-123.05391694420678,False
3.08203125,83.12215457712051,-873.7538145853703,-484.9724910626986,733.7095959499511,False
3.0859375,95.6868927218284,-669.1504837218895,-404.8751499098631,851.2452544457345,False
3.08984375,-11.738801637741389,-773.0544898481423,-474.3784231010144,77.1715923673919,False
3.09375,-86.51752780482325,-953.9953635223187,-622.5591788683344,-600.7559143761234,False
3.09765625,-19.1027059207712,-859.7763908197874,-534.3030408786055,-223.91598220560377,False
3.1015625,106.96480507898436,-596.5097856766378,-411.9123795946896,651.110812988878,False
3.10546875,118.84235688859692,-722.0652041065754,-508.1803520685652,890.4736578770472,False
3.109375,12.470268672848945,-944.090722680121,-644.0790139559399,174.52742586623071,False
3.11328125,-69.99328508845636,-999.7258415958812,-670.4962111953067,-583.8229473806832,False
3.1171875,-49.05627205680152,-975.3740823988634,-586.9185383119958,-299.7221535267966,False
3.12109375,53.21442075592765,-746.2778550667624,-458.4028775054999,590.2063504491567,False
3.125,71.02940572674774,-798.9351267454473,-570.5672035413102,918.9187560154913,False
3.12890625,-43.61046208521755,-934.6559497028538,-630.0512223860303,252.69879527850776,False
3.1328125,-126.40069044472622,-880.5956004797116,-552.2301001818015,-607.1431811063921,False
3.13671875,-76.45504470560375,-870.1410584973112,-540.9096377719384,-477.294265422574,False
3.140625,36.47629310344827,-815.9914671570465,-472.8700103073463,430.2688987537482,False
3.14453125,90.49894919869837,-614.8938552233561,-414.44198917975433,914.4810779378514,False
3.1484375,18.26710165989367,-669.7307578277774,-495.2120150368186,356.1973226766836,False
3.15234375,-93.13117423345453,-919.8365660233592,-617.599990833537,-565.2754211798766,False
3.15625,-91.1967879663438,-939.3633103726168,-572.7489828568046,-610.9528729222684,False
3.16015625,4.048819531440969,-871.4036253838457,-502.9655238347134,270.58607953243404,False
3.1640625,25.08164477855353,-824.9804436854529,-454.92302319497065,870.7158422738175,False
3.16796875,-47.09565753139513,-863.2159031448607,-526.66157657434,406.1418643821804,False
3.171875,-122.85280379186017,-967.0222172146175,-666.022487911727,-524.0893274203281,False
3.17578125,-104.83396050400269,-890.6926444386305,-551.1151157361434,-691.0634624786115,False
3.1796875,-1.6110536085309235,-594.6560237029455,-399.75306050056525,139.35306374702088,False
3.18359375,34.12550033610364,-604.8499242334545,-446.9168398905372,842.4937589277531,False
3.1875,10.015792521322602,-803.7722036139558,-511.84814497116946,515.4088529153403,False
3.19140625,0.0,-889.0877077731606,-536.0965882615803,-421.85250158503425,False
3.1953125,0.0,-952.9553368866109,-556.0951130339465,-729.00390625,False
3.19921875,0.0,-960.6844077510083,-571.510227290088,9.141637130286085,False
3.203125,0.0,-798.375053471034,-504.03079692847103,785.2338307412613,False
3.20703125,0.0,-832.5784329358653,-516.1310651429968,601.771848646419,False
3.2109375,0.0,-963.3347449049743,-634.0810644746089,-329.52401947491444,False
3.21484375,0.0,-995.1152182630614,-741.7959798923007,-766.0933203483044,False
3.21875,0.0,-841.4805246081337,-585.0665368243554,-117.47571245378572,False
3.22265625,0.0,-576.0925636114337,-398.4251765976381,726.4766539259197,False
3.2265625,0.0,-584.8950535474212,-459.77614614206493,686.4728309857003,False
3.23046875,0.0,-867.7777402472653,-554.5098699412582,-206.69562377780483,False
3.234375,-99.41243528746091,-945.9970747770543,-532.9363678830306,-746.7262481013895,False
3.23828125,-56.02332100953312,-744.0505119851503,-453.91885985432964,-191.2969506710615,False
3.2421875,48.75931685025054,-703.1435000229162,-466.55359969865253,688.7410531502078,False
3.24609375,56.1896421832987,-840.1069277453556,-507.67407805434186,777.2975297814562,False
3.25,-31.642677905768764,-904.5486841828862,-549.5994864393639,-31.932740361846186,False
3.25390625,-102.84162739091909,-957.1578259632424,-629.1459148130042,-686.381613937225,False
3.2578125,-60.93233192908213,-993.1120535646082,-660.0748200604222,-262.33277172833664,False
3.26171875,32.756197725710365,-992.6859854777726,-646.644778299725,641.0793566681944,False
3.265625,55.104287613053046,-821.5885241612687,-525.4963735180885,867.8022975357492,False
3.26953125,-27.294575745538992,-778.8575292944879,-495.5678719292349,119.70242892171837,False
3.2734375,-112.99253028752139,-935.2527843131263,-606.2734413193596,-631.0998752979101,False
3.27734375,-61.3390340457712,-883.7565979436569,-557.3400452212173,-327.66798975647765,False
3.28125,70.8005459762543,-613.0172140388786,-411.5331601875414,568.7056097260285,False
3.28515625,96.73435208384258,-524.0127015189593,-404.820365971034,896.6631389311141,False
3.2890625,4.20344391652408,-808.3537867995294,-602.1934402976809,225.74858850792896,False
3.29296875,-80.71664433932717,-978.2188189871822,-689.0073938027072,-604.802361271312,False
3.296875,-65.72944754873504,-895.6982732197965,-548.656880433039,-440.1043258066488,False
3.30078125,42.10417231613603,-834.2831802088426,-476.4145893329107,482.1951602030372,False
3.3046875,95.72511615627292,-923.671501418892,-595.3242027564318,931.2171236689531,False
3.30859375,18.805243455527375,-952.4413943145014,-597.4413513467061,362.789000196697,False
3.3125,-75.35781431419579,-919.6320214151491,-536.2564642660718,-514.4671074366751,False
3.31640625,-56.27122131660963,-920.0861671389941,-532.8122970965228,-477.0089174884655,False
3.3203125,47.056348819890005,-859.3403593320348,-460.7190042105866,412.27667062901014,False
3.32421875,97.8866051240528,-631.5130822613664,-398.2652707543999,-502.402973944329,False
3.328125,50.76240426365939,-622.2681338386503,-445.3649147041973,-96.11714227023276,False
3.33203125,-50.62274657785383,-869.4877689783978,-569.5337683902163,-404.0157343291677,False
3.3359375,-66.54452275192496,-948.1986229299071,-584.8935616100893,-507.831179055396,False
3.33984375,42.31456531868736,-682.4093307909129,-458.81853124618067,326.5735045297604,False
3.34375,128.76321178964253,-507.64753165100825,-408.8441116235105,-508.5688660059577,False
3.34765625,86.12324619782754,-768.9282387691732,-570.0958408606544,1.622302816013871,False
3.3515625,-25.553484879155462,-967.2461868468895,-762.5261864840503,-307.4454655130928,False
3.35546875,-70.66510446903263,-936.8482919346584,-629.2550052707162,-559.9773428429021,False
3.359375,26.648328170832315,-709.2598761477176,-442.0761597007914,209.51762324118488,False
3.36328125,141.8155063134014,-670.2178156891653,-479.24568961401553,-559.2955274822018,False
3.3671875,80.90746312408335,-819.7874574141408,-527.850710305396,68.18419171848268,False
3.37109375,-76.48801652063982,-910.0098014314959,-560.1752632493583,-242.62627876932595,False
3.375,-115.76780913978494,-977.77830281138,-598.8632147457437,-593.2109655017921,False
3.37890625,-10.266229652361886,-972.0162088845942,-585.9274443423826,75.47687091328521,False
3.3828125,98.98315765352888,-774.6827738313474,-499.99015381530705,-584.5984188817599,False
3.38671875,90.65560261855292,-800.0959136671963,-481.81304521357856,140.77204534343673,False
3.390625,-44.86386847653387,-933.5703564226351,-543.0201919992056,-99.81442686690298,False
3.39453125,-133.5016556923735,-985.2799495080665,-681.1763341022977,-597.7926727496333,False
3.3984375,-73.68571063004156,-933.3820142538499,-610.0479234142019,-23.516632356086575,False
3.40234375,47.31530054540454,-631.6023597913102,-397.3051792425446,761.851234035077,False
3.40625,78.60062962142509,-563.434907609692,-426.30557645593984,789.1224162032511,False
3.41015625,-21.397012488542615,-853.5711813512069,-670.0960927952185,-16.59640071226704,False
3.4140625,-90.98248608798276,-986.6781036593284,-663.4496419827823,-647.3873253120416,False
3.41796875,-29.77366833254399,-816.8109529206642,-477.5272761950776,-192.17218078747555,False
3.421875,51.65220823132502,-674.4781073195945,-433.64322831141396,665.6391583194005,False
3.42578125,56.36206748395967,-765.3336424438588,-453.7208731954629,830.7652096700275,False
3.4296875,-37.049190248029205,-918.7134952773619,-548.5742569435957,41.178067136702566,False
3.43359375,-113.40093321276888,-980.133869746471,-575.8691012378545,-695.9126467111495,False
3.4375,-50.776684671764244,-952.229509374618,-499.524280862335,-315.42870282136096,False
3.44140625,46.80553539782449,-951.4524785733928,-456.04704878086045,602.9178653885816,False
3.4453125,43.97010698327223,-957.3280677131072,-433.68997407768103,867.2122944832722,False
3.44921875,-54.353306037643605,-941.3700854390736,-436.48333422451725,132.22849605078227,False
3.453125,-128.1427361510022,-980.2719336271693,-540.5065759823393,-689.3270861341971,False
3.45703125,-90.74499950348326,-979.5007810590321,-567.7800258952578,-478.54946213868857,False
3.4609375,20.42951562881936,-757.8233613037766,-394.35919978687974,454.21411425232213,False
3.46484375,63.933871130988756,-638.1930227939379,-330.7848258753972,878.3487428577976,False
3.46875,-9.345644038668908,-838.0818658082729,-450.8106293618583,238.05444039043311,False
3.47265625,-73.87139715037583,-978.0455155467031,-503.752192551103,-645.1774378972134,False
3.4765625,-54.07581323518179,-982.1299505423159,-474.4438397494653,-602.1401428353192,False
3.48046875,30.85099627994377,-987.3541004644342,-461.6082750244439,307.4352905004888,False
3.484375,89.37874297237839,-987.7883139055243,-496.18445978978247,875.432661826265,False
3.48828125,55.11431343192374,-995.4489943626253,-567.5912063065265,362.2167228749083,False
3.4921875,-35.278946926179415,-998.6512886519189,-606.2605509808116,-560.9556658289538,False
3.49609375,-69.10828177512985,-946.0327633287504,-533.2702580774519,-647.0708197276963,False
3.5,7.5060560720178415,-953.9789849288071,-571.4669909462082,214.92804445925503,False
3.50390625,82.3258479455665,-805.76091907159,-504.6949775899077,863.3798073801486,False
3.5078125,35.24645253108959,-639.9842427546749,-409.66770020128024,480.74413179273097,False
3.51171875,-64.93188768982218,-851.3507940925965,-554.5519127352725,-425.3371002562791,False
3.515625,-78.79562135319793,-948.0444082524599,-553.1747861136528,-631.5362071664816,False
3.51953125,19.248259326876067,-726.2420318610975,-418.02854684826445,126.73745053929349,False
3.5234375,88.15392210034221,-529.130255438768,-375.59868461256417,-529.9381693427646,False
3.52734375,21.556520680568283,-650.7702700122212,-467.2962854223954,-45.63279937175378,False
3.53125,-89.29465738434979,-900.0603995909466,-569.9192551580451,-330.6799426809613,False
3.53515625,-96.76383276552187,-993.547132329351,-597.809889706444,-681.9247793842428,False
3.5390625,10.399787882317895,-929.2647147988725,-517.1990535626986,13.876867189409722,False
3.54296875,109.45956300797482,-832.8281534064868,-484.83460621447995,781.2857766572201,False
3.546875,85.9859850003819,-902.2794514302627,-583.3664523182096,679.4344828903147,False
3.55078125,-35.78680239397457,-895.5535254598509,-571.0113234462846,-195.36119683451477,False
3.5546875,-83.6047664652591,-839.4742269616231,-535.770570115803,-669.5077131966511,False
3.55859375,15.820384112991945,-879.8323850181802,-532.264577063218,-53.293612789507506,False
3.5625,19.308169616076782,-696.1079268521296,-449.5722925727355,746.7253229041692,False
3.56640625,0.0,-510.4600495531622,-417.579467661549,760.0439139837306,False
3.5703125,0.0,-733.5811103069237,-551.2423779905586,-53.17431748044487,False
3.57421875,0.0,-954.980522459744,-688.5133536746058,-642.346546487335,False
3.578125,0.0,-856.569202976045,-587.33061140308,-163.09438186529883,False
3.58203125,0.0,-752.1447675584326,-488.0270394133822,686.0546099239994,False
3.5859375,0.0,-884.1276725968589,-571.6335209912002,835.3805299552371,False
3.58984375,0.0,-984.988245920924,-749.671893141958,79.31860954305182,False
3.59375,0.0,-997.1711077861464,-744.006649027591,-630.468785806496,False
3.59765625,0.0,-964.6085156966086,-598.1563466716316,-272.7031536434464,False
3.6015625,0.0,-828.7310249442373,-525.6134905986464,619.7538112434306,False
3.60546875,0.0,-842.3448635820246,-517.6099629426637,867.4920939256906,False
3.609375,14.256372922307461,-956.7525888895157,-577.4127028335589,150.28148150759625,False
3.61328125,-18.896191955282937,-987.5218538980383,-645.3610357052829,-632.691742592352,False
3.6171875,20.701215436908036,-994.6274442407578,-658.9362778796211,-420.4087837515276,False
3.62109375,117.97619775116108,-949.0487884991445,-593.3881156807627,481.09548303440477,False
3.625,140.60399352236618,-873.0986750641653,-556.1846889513566,877.9700294854558,False
3.62890625,55.39206910708829,-932.9672342842957,-678.2399318285976,212.2586192904064,False
3.6328125,-26.659338668342087,-991.2825504919335,-804.825026783259,-665.1985207620386,False
3.63671875,7.283041279638226,-997.3343257302615,-808.7694107014636,-588.4875789652591,False
3.640625,118.50300082307199,-922.6564170969812,-646.6871292834118,311.61584809834085,False
3.64453125,174.25348017873512,-861.2525182363275,-540.8546547987321,851.1949389417201,False
3.6484375,87.17914992514055,-938.4047107980933,-653.224112380836,303.8054666493523,False
3.65234375,-34.57725896021755,-993.5859823774749,-751.3280629354069,-608.5910764483012,False
3.65625,-15.972049677749673,-996.3552136978979,-682.5621301273943,-653.8708274040778,False
3.66015625,96.13614489122465,-986.7171029011855,-589.1858653141041,206.82082715870206,False
3.6640625,131.7510812901008,-987.8636822582494,-635.9560884032234,852.547864392377,False
3.66796875,61.74934665080359,-996.8508186797238,-706.4697743044946,448.69436386656685,False
3.671875,-21.25336342352115,-998.3429052054051,-693.4736872383738,-484.3570072357767,False
3.67578125,-25.49042950847846,-999.2185709784601,-697.1269728173694,-657.4572317541247,False
3.6796875,52.066166107767046,-1000.0,-753.7908934054938,159.5995186652101,False
3.68359375,102.97560336332803,-962.0175432733439,-655.0898695306771,-520.0920394043328,False
3.6875,61.75303262488542,-955.3498796975252,-586.9513586541399,-91.36212119042159,False
3.69140625,-48.35500183329259,-987.5310143932566,-667.4691598650238,-384.3867325951785,False
3.6953125,-89.71866597408946,-998.6602402759105,-653.4408610364214,-714.9002645861342,False
3.69921875,2.611636299575295,-888.9974455645777,-545.6931469231239,9.94558248097951,False
3.703125,14.393103168737937,-751.0874980204815,-465.66952149380126,781.0082159447394,False
3.70703125,0.0,-851.5465661092948,-561.1119313451021,627.6374766541646,False
3.7109375,0.0,-974.0487944668938,-739.6743912418266,-273.12455122525046,False
3.71484375,0.0,-992.7052899671555,-699.5296805778338,-712.6455445119157,False
3.71875,0.0,-955.7091548139208,-549.5287387710829,-82.87329943015152,False
3.72265625,0.0,-958.2432998884747,-564.8668093834026,741.6810767920435,False
3.7265625,0.0,-989.4638662923923,-662.0608601626948,737.6671166074702,False
3.73046875,0.0,-992.9875663136305,-664.6417894272488,-146.21334966427833,False
3.734375,0.0,-996.7710597099579,-646.0148324828892,-735.7571307443168,False
3.73828125,0.0,-1000.0,-631.4911420142072,-201.73003432439657,False
3.7421875,0.0,-872.4393581184307,-562.867613358592,672.380886110517,False
3.74609375,0.0,-791.5859031257638,-515.3478577212173,749.5502704106575,False
3.75,-79.0586719450254,-913.6732755079175,-585.8946094450254,-63.94777505975492,False
3.75390625,-123.71562098967246,-992.5537407762466,-673.9635630709943,-724.6338726109906,False
3.7578125,-46.51043019356514,-977.4368051152683,-621.5578021877292,-325.9489198851137,False
3.76171875,57.369660384204096,-983.6703115452185,-541.5659073766423,587.3623025989153,False
3.765625,56.378700482003175,-993.5001661421413,-574.159072506722,837.8629943206123,False
3.76953125,-69.93712856728183,-991.8392818267233,-723.7126609860059,95.19682114703016,False
3.7734375,-159.10387187786435,-996.980115480828,-706.9551956824779,-679.129967250993,False
3.77734375,-108.63449182466084,-888.1547396820001,-514.5262478325135,-423.34285746341055,False
3.78125,9.433788298628087,-713.1704229272335,-439.6108824534802,501.191192604574,False
3.78515625,50.624069087992666,-831.0877169741063,-596.3946852085243,890.3951363428048,False
3.7890625,-31.477251894402343,-951.0364070902591,-628.442436522244,240.69985944756775,False
3.79296875,-105.86691823515034,-953.3089260342825,-570.5180292868492,-587.5168051821071,False
3.796875,-79.19695093667704,-982.1520753531242,-600.334373877783,-436.4053709300934,False
3.80078125,19.307578755194328,-924.0448736555854,-557.1182836561966,453.04431602908824,False
3.8046875,77.05092447598386,-743.1012817770716,-499.3110830175996,919.1723256844292,False
3.80859375,15.060634595554546,-773.7291260884509,-545.0455788840513,395.9063144477543,False
3.8125,-86.96577304792532,-941.699236653248,-658.7119353076876,-468.9265260251161,False
3.81640625,-93.42040120462602,-999.6744294354222,-697.9161693542227,-487.10079934421594,False
3.8203125,11.56929685113046,-960.7001771119768,-596.8141028395203,356.8315514722732,False
3.82421875,73.13888575913592,-904.4852768462785,-517.9571964373014,902.8993474624175,False
3.828125,7.082390486556676,-929.1082161338986,-614.376414270165,464.0362136705621,False
3.83203125,-75.53049114099548,-983.6409071551882,-729.9343380476962,-430.6875455936048,False
3.8359375,-54.1262331757211,-969.4499871574035,-673.371502660184,-596.8508723894677,False
3.83984375,34.08665597311335,-787.0924873014054,-542.1692994767797,193.65174701153376,False
3.84375,77.39570850808867,-736.1140887133014,-548.1527814185141,-475.33732071974237,False
3.84765625,24.992277732369836,-879.6759703082987,-614.910803631447,-152.77008601197747,False
3.8515625,-67.02324773716774,-962.190382246792,-660.1594127138711,-385.59228679728085,False
3.85546875,-88.18358181450134,-989.8380269283947,-713.8614882993919,-668.77290422192,False
3.859375,-9.042288468148485,-981.3084206958448,-684.4331223266116,68.43423584058974,False
3.86328125,65.2912357155952,-941.0084398298094,-624.3033249434735,791.1279380423491,False
3.8671875,30.614792761549744,-965.077566418663,-634.1035628895747,608.3092793250428,False
3.87109375,-40.00191553047662,-985.0275335128323,-654.4297984933547,-268.6352471929422,False
3.875,-55.84401998097959,-994.9263687152438,-763.5395699974029,-638.9394688798582,False
3.87890625,4.824720010311644,-967.8059299094867,-725.5154030132906,-7.158623825618747,False
3.8828125,71.4818208032877,-684.1952394547482,-514.5173260472684,746.5991586905707,False
3.88671875,41.37559963945246,-602.0223150857064,-518.2922258845637,692.6536886419885,False
3.890625,-53.223886841809176,-865.0311808524602,-630.7067523158566,-152.08195624249925,False
3.89453125,-104.17934735907424,-996.0966143446379,-652.0194524805224,-699.5852070921173,False
3.8984375,-21.495475013749697,-875.8486139544121,-585.3184056847348,-174.14584797421173,False
3.90234375,80.08224249541703,-769.1328375630155,-545.566442054308,679.6173235563703,False
3.90625,52.342622095377045,-886.577015953465,-589.3837857205604,762.7500069225891,False
3.91015625,-45.722548837076076,-986.1070333982585,-712.6194073670944,-39.38339611022002,False
3.9140625,-94.72375765781594,-986.1762457796077,-732.8095399963335,-700.2277173788499,False
3.91796875,-23.61927764452456,-992.8533217925018,-654.9576242055732,-305.65851249312516,False
3.921875,88.5539594790712,-969.992946551329,-631.43594370608,600.1004609207913,False
3.92578125,92.84072387367087,-844.6871753544366,-544.9108645024902,804.5240731846584,False
3.9296875,-18.059782453024752,-877.9485742724564,-564.9182826344332,26.077142768484578,False
3.93359375,-96.73661982858715,-974.2717197430335,-689.4667314684674,-715.0186050553043,False
3.9375,-38.820207369638354,-953.6728277439024,-618.7348875105131,-453.3348500578217,False
3.94140625,0.0,-751.9031481534525,-440.7288026562023,454.37755404063546,False
3.9453125,0.0,-709.31471976404,-463.72294699874726,813.8409234352084,False
3.94921875,0.0,-907.4732990959576,-644.7458502658274,115.4843341805946,False
3.953125,0.0,-999.3225824931255,-674.3796008535747,-724.0638068572412,False
3.95703125,0.0,-996.8048670098998,-611.2772797757273,-607.6032945795649,False
3.9609375,0.0,-989.9957392873511,-553.0333409715857,300.3632347043996,False
3.96484375,0.0,-987.625364510129,-618.0294599139116,815.1226766358317,False
3.96875,0.0,-995.8243225824931,-651.8292420944088,239.40443114115487,False
3.97265625,0.0,-989.7010969200685,-553.4724065593681,-657.3372642500306,False
3.9765625,0.0,-973.7352128208066,-514.7212097559578,-689.1655268961962,False
3.98046875,0.0,-903.9838367090106,-458.48341228267844,152.67710847745047,False
3.984375,97.17225784587269,-807.0556390917363,-406.2186543472866,712.1996986586998,False
3.98828125,69.48175054422548,-884.9937879525664,-511.49524160747023,230.40134839023835,False
3.9921875,-68.12752793861526,-980.9984772690815,-656.2007959067923,-646.9315086183849,False
3.99609375,-98.80950675985335,-966.6442591372594,-600.1280899117781,-750.1843921860678,False
4.0,9.496956925262765,-857.0715681144586,-464.27562026399414,87.17043701112209,False
4.00390625,103.92880671402384,-890.6843456404674,-493.7427496276352,789.6808403987168,False
4.0078125,65.45490124090992,-977.373099391194,-644.1937439367667,399.13017666447695,False
4.01171875,-41.68168550247495,-993.5995888459423,-783.7701805411268,-554.9019212333476,False
4.015625,-65.98659367361748,-996.6463298197373,-700.1769627921632,-848.6362437461809,False
4.01953125,13.518623197262286,-959.5307821284528,-509.97903171596187,-126.40039205725986,False
4.0234375,90.03613848151542,-952.9558246448213,-529.6139818209593,654.7618834498167,False
4.02734375,55.87475389001773,-986.5594051251986,-602.2535056946651,413.04678906440967,False
4.03125,-40.62221704987047,-997.7712570320972,-634.0622681855494,-506.19271123591693,False
4.03515625,-66.0695403204247,-998.797810685915,-672.1880788363122,-875.9866473800795,False
4.0390625,22.077091863236376,-1000.0,-693.3794266377414,-194.54791195612324,False
4.04296875,111.20245187901008,-1000.0,-702.0077265696609,622.7667062901008,False
4.046875,92.92134816708935,-1000.0,-722.5840700718803,522.39275596393,False
4.05078125,-1.1137526733883334,-1000.0,-804.6353152211274,-354.79846351779713,False
4.0546875,-37.46523189241628,-1000.0,-894.374298192679,-859.2499756515828,False
4.05859375,69.94917578483043,-1000.0,-802.0152156374122,-306.9239564237703,False
4.0625,202.6041049999236,-1000.0,-642.1107607113939,573.7403752138841,False
4.06640625,178.43688535937977,-1000.0,-670.9648246543691,589.1352722559578,False
4.0703125,48.16343707987045,-1000.0,-803.4663791325471,-282.7002824416402,False
4.07421875,-25.485267720745494,-1000.0,-845.4282075886038,-879.6821293538038,False
4.078125,46.951983510312814,-1000.0,-796.0818453935586,-428.90635493776483,False
4.08203125,186.5422049247632,-1000.0,-761.7725161358081,495.40923130537726,False
4.0859375,209.87709062194452,-1000.0,-805.2828725116873,681.0426266786085,False
4.08984375,88.45797409677667,-1000.0,-867.904182897953,-122.23322210128333,False
4.09375,7.196986334331459,-1000.0,-898.9893974578342,-828.5853521831459,False
4.09765625,74.7759545428506,-1000.0,-922.2457536090742,-553.3766446112129,False
4.1015625,187.7862729352542,-1000.0,-922.1939762015705,360.4661731258402,False
4.10546875,206.02705850901313,-1000.0,-912.5756664375191,617.1260359379773,False
4.109375,103.34136671962845,-1000.0,-938.9169824003911,-163.32584102297722,False
4.11328125,6.361500582416745,-1000.0,-975.8040155724871,-843.7968439695998,False
4.1171875,32.66319287956795,-1000.0,-983.1808831982553,-709.747620300278,False
4.12109375,129.50797123243203,-1000.0,-966.0207569508096,109.69368817789496,False
4.125,152.79594229317408,-1000.0,-961.7463481245888,473.4321917699426,False
4.12890625,51.62121906507791,-1000.0,-983.2866385483501,-196.10502835701197,False
4.1328125,-68.71069640292716,-1000.0,-994.62890625,-849.2618132791494,False
4.13671875,-37.93541022189123,-1000.0,-980.0866881969905,-905.320878208066,False
4.140625,104.87137829228794,-1000.0,-964.2398137680274,-301.5852550281869,False
4.14453125,191.7034555931103,-1000.0,-973.00498395967,176.9001644611213,False
4.1484375,95.81364771755071,-1000.0,-991.0481372983378,-314.0248793082376,False
4.15234375,-66.28206872517568,-1000.0,-987.7182272571035,-872.1813655285671,False
4.15625,-44.93145265238314,-1000.0,-979.9234503895509,-920.362715541934,False
4.16015625,82.38943431465412,-1000.0,-985.3991851396357,-313.8523516751711,False
4.1640625,140.05239960472045,-1000.0,-956.3438072868928,228.55339854491294,False
4.16796875,98.88817249373625,-1000.0,-925.7402217233714,-208.25604103328953,False
4.171875,33.928972172351884,-1000.0,-942.6716611030072,-823.2759376402603,False
4.17578125,42.63745039606759,-1000.0,-938.2476396357858,-970.4225512653538,False
4.1796875,143.39750658799267,-1000.0,-898.5290695176444,-438.17428462992666,False
4.18359375,231.867888829901,-1000.0,-873.0833379483928,292.027397221034,False
4.1875,184.83839725595783,-1000.0,-893.3105021196151,121.48750787694775,False
4.19140625,75.77874951303166,-1000.0,-938.313583265858,-656.2727371249389,False
4.1953125,28.12929651695692,-1000.0,-934.8145873911549,-939.5806778471585,False
4.19921875,98.37734876260312,-1000.0,-864.3851266517721,-302.23344289451575,False
4.203125,216.86305734004523,-1000.0,-847.2513382081092,554.1179678429021,False
4.20703125,220.01135593301254,-1000.0,-882.6269143369997,495.9726120913535,False
4.2109375,125.4442392599609,-1000.0,-888.1566195230383,-359.69970524092514,False
4.21484375,78.56894358195845,-1000.0,-900.8343597234953,-818.2254967250993,False
4.21875,150.32166087165038,-1000.0,-889.4500046366375,-267.40000669736526,False
4.22265625,266.68964648007824,-1000.0,-812.0439445963701,578.7815717810438,False
4.2265625,266.60842499236173,-1000.0,-801.8542454361442,612.2453120226093,False
4.23046875,128.93549018484572,-1000.0,-877.202860048121,-243.57521530323868,False
4.234375,26.239000244439012,-1000.0,-920.9304843138902,-856.6700579396847,False
4.23828125,82.29041351588756,-1000.0,-882.0801527173082,-461.88798502902534,False
4.2421875,207.37860284962417,-1000.0,-767.5308604253239,367.8343443496394,False
4.24609375,213.09560466315307,-1000.0,-707.8076365815001,481.2055429842652,False
4.25,85.4976440765353,-1000.0,-819.4645644763978,-273.9579156164069,False
4.25390625,-2.9152157078801046,-1000.0,-831.0684730009472,-870.6155542463639,False
4.2578125,72.63628909830432,-1000.0,-677.9956569374427,-583.1362604548578,False
4.26171875,218.01041682580666,-1000.0,-613.1501385472684,272.23314850815814,False
4.265625,246.30531216234468,-1000.0,-668.3892363924906,535.4706915180983,False
4.26953125,139.56691804418233,-1000.0,-759.418510860349,-179.55331515636453,False
4.2734375,33.122117753208066,-1000.0,-789.7602364516499,-843.0419698098075,False
4.27734375,71.24511271196151,-1000.0,-766.3312101378705,-620.0707612473266,False
4.28125,205.38340521686325,-1000.0,-713.5764685914966,266.02096016789903,False
4.28515625,233.24292745569812,-1000.0,-727.2521506454323,633.1811351875191,False
4.2890625,122.63975514085799,-1000.0,-803.7889956612075,17.590776628574872,False
4.29296875,34.29178482088298,-1000.0,-841.7153605255118,-727.8899447181485,False
4.296875,56.26646998166819,-1000.0,-835.1609045600367,-622.0876477524442,False
4.30078125,132.64200140170496,-1000.0,-719.211426378025,287.58709333368984,False
4.3046875,174.58404345210815,-1000.0,-655.4611117476321,854.9827065192484,False
4.30859375,112.20917367200867,-1000.0,-768.2730097317282,356.27988648863357,False
4.3125,20.58501760933558,-1000.0,-851.6758143379041,-507.7228282601676,False
4.31640625,48.19525401963031,-1000.0,-823.1127847635961,-584.2184755003055,False
4.3203125,169.98155249327795,-1000.0,-794.1432030677096,242.29724691013803,False
4.32421875,218.33911572907118,-1000.0,-851.8719387316681,849.6348258955851,False
4.328125,124.45860902650473,-1000.0,-910.1100027688665,406.0624749369845,False
4.33203125,10.889352198423367,-1000.0,-908.0785183940357,-518.6462327746883,False
4.3359375,19.990082206691106,-1000.0,-893.1864700294072,-745.1806804728078,False
4.33984375,133.92244169747616,-1000.0,-907.5050475223815,23.080031815265215,False
4.34375,185.19232284028413,-1000.0,-866.9074804747174,774.1348784085701,False
4.34765625,84.13197825962419,-1000.0,-826.3352321551329,497.52475867896425,False
4.3515625,-40.483361437454164,-1000.0,-855.8050625133677,-430.4715429066855,False
4.35546875,-53.789617466773606,-1000.0,-843.1022105579743,-750.0459190249771,False
4.359375,27.931950374285293,-1000.0,-781.2251671588174,-41.17446701963581,False
4.36328125,111.4464356304235,-1000.0,-725.5054922390614,750.6002362273894,False
4.3671875,92.40071465398717,-1000.0,-761.9013519706691,621.0103259624198,False
4.37109375,-1.880143885578974,-1000.0,-829.2535517873511,-281.08446474946527,False
4.375,-27.949416879277685,-1000.0,-808.7567889116353,-727.3809171428135,False
4.37890625,49.46341277115796,-1000.0,-744.3786341372594,-76.82745187901003,False
4.3828125,120.74394191109074,-1000.0,-699.107607460663,744.9587534372135,False
4.38671875,96.67756894898864,-1000.0,-749.4797912910963,719.4245048677737,False
4.390625,5.115838871066302,-1000.0,-736.2078821990528,-111.53653590933402,False
4.39453125,-33.33656387496944,-1000.0,-650.7241028324371,-696.8687696697018,False
4.3984375,54.67717642453407,-998.4807038649557,-609.6560041437519,-228.277078798121,False
4.40234375,158.86989072525205,-995.1231847215857,-547.260075332264,639.3535890238313,False
4.40625,137.61443733242453,-997.561829933497,-516.3040689770742,747.8785934581551,False
4.41015625,21.058128504262413,-998.506719924453,-585.7522908996119,-57.75137234363547,False
4.4140625,-54.070681284372135,-999.0547662694776,-708.3135812901008,-711.699236652154,False
4.41796875,-4.912798607928508,-998.2011915673694,-670.3476478956615,-335.68143952413686,False
4.421875,78.8248081249236,-956.2177264116353,-477.1690023641836,547.6766179284558,False
4.42578125,79.96038850061106,-957.4499515448365,-457.02462620302475,789.5281350252062,False
4.4296875,-7.081913095783676,-990.1022869404981,-641.5760817674916,54.76298741597918,False
4.43359375,-86.12897523718223,-1000.0,-642.2504955619041,-725.9592500592,False
4.4375,-43.435996219065075,-992.129914738008,-460.4557828731286,-524.7422686564314,False
4.44140625,60.99192254812098,-907.5466530132906,-341.9903077738313,386.5896754697525,False
4.4453125,79.9242764223295,-911.1485673582254,-362.96000605368494,759.9262469731575,False
4.44921875,-7.506015123739687,-978.4889507905591,-419.8499083409716,67.83233558661777,False
4.453125,-91.58703074085807,-987.6514815087195,-412.20059626176686,-736.9494667209751,False
4.45703125,-62.43235969485182,-992.2551999789948,-390.7960849182707,-606.9947296058662,False
4.4609375,56.677324415673695,-926.8120560265811,-332.91597445004584,287.97440708065994,False
4.46484375,132.29067999877782,-763.6503911024199,-249.8407804479345,783.2181637283061,False
4.46875,86.37547619729605,-799.7341530132906,-291.8068106954629,220.8018553792392,False
4.47265625,-8.90805215016804,-949.4313679155209,-450.6478491158723,-629.4570097674152,False
4.4765625,-31.017615841175754,-998.1864009792838,-488.0490448736556,-642.2552100838732,False
4.48046875,43.86206748395966,-834.4426701420715,-320.28803372288417,272.1070715895203,False
4.484375,98.73300488848152,-667.809301481821,-227.55317536472654,499.9803076306141,False
4.48828125,40.54658856553621,-808.1243555224564,-362.56059879124655,-442.69520508707603,False
4.4921875,-96.54681556121669,-969.1355166065754,-497.3929588674071,-973.7284456829778,False
4.49609375,-136.78176558203484,-965.5189297376261,-419.2625386686526,-991.4560179880843,False
4.5,-26.93531091133373,-805.0892807079845,-273.6243435070275,-620.9826017680921,False
4.50390625,56.63937177264116,-773.5716550048887,-265.13421229528234,-38.54706549055851,False
4.5078125,5.130757332722283,-919.5781536434464,-347.88495001718604,-219.3264493583868,False
4.51171875,-106.86854925717996,-986.9690519496639,-403.677848352047,-798.0374465322334,False
4.515625,-139.06664733234035,-947.3890603517415,-363.26671941834707,-935.7584784601283,False
4.51953125,-56.657483891851015,-949.2658057034496,-382.1454846576326,-310.4521071406747,False
4.5234375,8.338763653376109,-951.7871421956156,-372.12464553735106,468.2676264608158,False
4.52734375,-8.887524346929425,-926.717264121219,-326.28958166246565,305.17721342231897,False
4.53125,-78.70879507799133,-967.1583117380378,-412.9531849162032,-539.1170750676026,False
4.53515625,-113.43028543194318,-999.6240547662695,-571.9093721356554,-898.327401752979,False
4.5390625,-47.9517250515582,-869.420017949893,-485.0826124732661,-263.3683141422242,False
4.54296875,27.715339042926978,-650.3267441471892,-292.6860749885426,607.5544702871982,False
4.546875,-4.7390180576347305,-704.6303096931138,-366.60624064371257,585.4688669535929,False
4.55078125,-124.39923354911396,-918.0015407787198,-512.4239755194012,-259.2126274633364,False
4.5546875,-177.92771826306142,-997.3616700561412,-504.1707543251604,-757.8563602772685,False
4.55859375,-84.43598667124961,-904.5539200943324,-402.9467243832111,-195.03125716086163,False
4.5625,14.333161303012709,-796.8560523958843,-366.74579703350344,667.108469095652,False
4.56640625,-25.912204256416132,-891.8329180033609,-446.6649778968072,745.5271169893829,False
4.5703125,-140.64084340627863,-989.9725261610143,-549.2862709574549,-44.06313851015898,False
4.57421875,-187.20398788382218,-986.975466888176,-522.7983931026581,-671.6676930568286,False
4.578125,-106.63389337875826,-991.5658992300171,-469.66819791157417,-256.7495244897335,False
4.58203125,0.2900148945921188,-983.9525091659028,-503.0303871161778,617.2045070462879,False
4.5859375,19.566427732584785,-890.2648683356248,-430.04136591047967,844.3894649404216,False
4.58984375,-56.35476980719872,-896.5796202792716,-405.59020563431926,169.56846488480812,False
4.59375,-141.54983320155583,-973.8697075101925,-501.34431770489834,-522.6869421315726,False
4.59765625,-112.09560740230077,-909.4818943259594,-454.3402724731117,-249.69367542700445,False
4.6015625,-6.857867638634275,-782.8298949262909,-351.47346662083714,589.3525148945921,False
4.60546875,22.160449845325388,-864.5973268503667,-403.25514865948674,885.4657782424381,False
4.609375,-52.484938321112125,-979.766030782157,-554.4030646100672,264.18847149022304,False
4.61328125,-115.2940488466239,-1000.0,-630.8395334459975,-529.3037374923617,False
4.6171875,-68.35570483416342,-965.427574916738,-507.90222511114337,-392.8464051710309,False
4.62109375,39.199749847234955,-836.9928021406203,-374.41624059540175,470.0542614287351,False
4.625,66.04229920944088,-860.3298113829056,-494.73989960472045,916.4192290616406,False
4.62890625,-37.74696021425298,-969.0268866483349,-566.4354305109991,407.7463813779407,False
4.6328125,-139.4843243934857,-976.3772610608653,-467.53425010694207,-405.43289576203864,False
4.63671875,-113.84030443209593,-974.2513319202567,-430.7197978727467,-357.7495142548885,False
4.640625,-1.5252412145730716,-910.0886986609823,-391.98194925018015,451.5068756942777,False
4.64453125,61.07424261953865,-729.918109580278,-332.0679494156737,932.3267250515582,False
4.6484375,-19.100076621219074,-734.7995495818056,-366.64166332493124,516.1027189791475,False
4.65234375,-156.69435861494745,-918.9075963242483,-474.25402536627655,-324.4716035390186,False
4.65625,-169.92652956003667,-981.4333180568286,-480.01376675641615,-454.33966114802934,False
4.66015625,-48.981964176596406,-936.4854849335472,-374.81838264780015,308.8380547280782,False
4.6640625,41.44235267720745,-930.277644506187,-336.05666867170794,-298.5104512774976,False
4.66796875,-8.424433016071859,-969.5166170786482,-433.1489139651063,-241.61316380469327,False
4.671875,-129.34649380346775,-995.4947737645127,-571.6242803334097,-305.73388090054993,False
4.67578125,-158.59375,-929.98046875,-479.78515625,-557.03125,False
4.6796875,-59.992982355637025,-698.6668564294989,-290.837051013978,180.9460214252979,False
4.68359375,31.680158923388333,-608.2290532863581,-282.1365445023679,-343.14025263519704,False
4.6875,2.7125920857876977,-725.3355014895263,-339.2131255353279,-146.50257145218495,False
4.69140625,-105.2704239707455,-823.4602655724871,-366.8383781603269,-142.92068271654443,False
4.6953125,-131.01907197201172,-936.8185427042594,-413.1776618071682,-503.64844322903934,False
4.69921875,-33.914765457913234,-985.8740667010388,-424.1740542888787,123.39868216277114,False
4.703125,47.76983916704858,-784.5658369615032,-332.98471872135656,-356.0463629983959,False
4.70703125,19.611063769859456,-771.294612167736,-337.25330831805684,-99.13720568858844,False
4.7109375,-84.41331060953254,-940.3128461083104,-467.44338145432323,-105.26066729682248,False
4.71484375,-139.89102651017478,-1000.0,-604.4495777697996,-587.4437002528416,False
4.71875,-79.1168091678124,-889.9457922777268,-482.43422748625113,-44.494998138176015,False
4.72265625,17.93598905820349,-594.0175476913382,-241.35039527956002,733.9127663840513,False
4.7265625,14.252799896883594,-517.3102789394286,-247.93385273449434,772.776194431714,False
4.73046875,-78.97669497593951,-789.6549121123587,-370.77524084364495,17.24066939734189,False
4.734375,-127.29240023474179,-930.0052619402311,-384.56283574846515,-542.5393658021849,False
4.73828125,-73.42826192404058,-733.5447667135174,-301.6155413560254,-102.6039916126864,False
4.7421875,15.698488342117322,-576.3501804537121,-282.105185895967,695.608243583868,False
4.74609375,26.124702824243816,-698.4506879201039,-325.4115406832417,852.0512288038497,False
4.75,-41.46070238504431,-841.6239401924839,-385.35123429384356,173.28354147571042,False
4.75390625,-83.88143761457378,-926.5943658340972,-446.0355679995417,-505.2968893217232,False
4.7578125,-28.37879286969141,-984.8864048655668,-456.7755475672166,-214.37232661167127,False
4.76171875,65.67409667371976,-959.6896137768119,-453.85879445734537,606.5908062286117,False
4.765625,87.03341019324779,-751.3870290540024,-373.34369271310726,878.9430986002902,False
4.76953125,1.4497761037274728,-704.6989275416284,-377.83862521005193,245.58195725443022,False
4.7734375,-97.9377613714482,-901.9137402612282,-509.8654295084784,-520.78681756989,False
4.77734375,-77.76024361251146,-920.2068772914757,-460.31799596127405,-346.3027576478002,False
4.78125,25.67411941661645,-643.4640634415487,-310.8561148877674,501.39790552500756,False
4.78515625,54.41446231477238,-500.1468573365414,-298.33348848533456,899.0519615986863,False
4.7890625,-34.587732360287816,-754.1771261419885,-445.3342524462998,351.84286486341966,False
4.79296875,-117.52552250420104,-969.9154302245646,-551.5382724182707,-444.8659009318668,False
4.796875,-85.42755714367553,-856.4343921860678,-439.6728441032692,-369.24845564084933,False
4.80078125,29.739416246562797,-750.770061153758,-330.56577967461044,457.60590914298814,False
4.8046875,94.6928467766575,-868.137656822869,-433.3311850748549,928.9809616559731,False
4.80859375,22.304890391078516,-956.009932115032,-490.76305544416437,478.6879929059731,False
4.8125,-75.81201971553409,-856.7038354008799,-410.01004014146906,-353.08893092306283,False
4.81640625,-61.7964453483043,-742.5636242552704,-351.4563700637794,-394.3041611766728,False
4.8203125,39.53547490834097,-681.1887746333639,-289.57978273945923,399.78105665673695,False
4.82421875,80.58356248090436,-516.6455421249618,-247.3797512316682,909.9023377826153,False
4.828125,9.442766411531267,-592.5206028281175,-321.3548425428537,596.5473611593131,False
4.83203125,-93.89205359188817,-881.0542697830736,-437.5579134681485,-175.84730894821263,False
4.8359375,-147.23402769821266,-928.30634881989,-411.27886423961195,-370.474335472044,False
4.83984375,-74.88994276689684,-658.5727077158701,-279.701846469384,331.3043482931282,False
4.84375,37.23967284410327,-440.7242376069355,-212.3389104510388,-276.78406899251445,False
4.84765625,14.565998080889095,-621.7298135311642,-318.8222351913382,-147.67218291704864,False
4.8515625,-112.66953339825848,-909.4877238962725,-472.52299830048884,-134.97221585701186,False
4.85546875,-163.6286711350443,-876.4139717957531,-408.6793819699053,-468.12193276428354,False
4.859375,-72.15821207607698,-585.9079614459212,-258.69552374541706,175.91014550870761,False
4.86328125,37.70682955239841,-499.711238256187,-241.1012868068286,-345.4822124197983,False
4.8671875,28.38924000473601,-661.4235015697568,-298.57491339602177,-82.16370419633029,False
4.87109375,-76.30020360716468,-757.0359045600367,-346.9823234131531,-53.16110267720751,False
4.875,-122.4407216807973,-779.0203020328668,-357.61909751816796,-449.4617370207548,False
4.87890625,-45.30554160428379,-783.6726376783641,-350.0324287498472,119.34003734378814,False
4.8828125,52.929031087687136,-717.5330115719523,-330.965355751604,-337.78816500534674,False
4.88671875,35.40168853116407,-743.487733444088,-336.14051042621446,-22.60773516269478,False
4.890625,-84.7608809291934,-908.386771262985,-408.64724760349833,84.21441767873512,False
4.89453125,-150.73867271043386,-995.7511922834556,-522.5775103593797,-433.43280963565536,False
4.8984375,-88.88464210013748,-861.0358723361595,-440.66635397571036,31.094967346471094,False
4.90234375,8.334616321035746,-479.25071727963643,-165.06645279560038,-413.5052059463794,False
4.90625,14.604219179651697,-340.68157080659944,-118.8041838527345,44.30395231820967,False
4.91015625,-88.57985792850596,-692.0775807745188,-405.4963193171402,198.15804737626036,False
4.9140625,-162.74702901567466,-885.0775890961104,-479.165065320597,-440.0648491448454,False
4.91796875,-94.15584183088909,-672.1755771654446,-302.14082908455543,-114.01479075962419,False
4.921875,-16.34228363658128,-466.8361525915729,-226.3034549317692,657.0657698594985,False
4.92578125,0.0,-497.7151480866178,-245.9568880327681,888.7322052589368,False
4.9296875,0.0,-608.7327900626336,-310.3323773583104,272.8618860754659,False
4.93359375,0.0,-668.9994996638964,-375.85780428837694,-429.96130033915915,False
4.9375,0.0,-711.7746047204399,-397.4819426940116,-186.60880093759545,False
4.94140625,0.0,-764.5847058318056,-385.6442627176902,609.1287558719065,False
4.9453125,0.0,-792.1771764245341,-391.26679222044,925.8530078005653,False
4.94921875,0.0,-799.8242605216926,-419.3669082263978,396.59140004392,False
4.953125,0.0,-886.4382232470211,-504.41789356095325,-354.3354541418423,False
4.95703125,0.0,-955.7706399900703,-580.2834328693095,-245.61623987931563,False
4.9609375,0.0,-684.0352767911702,-446.7516243221051,533.5585424304919,False
4.96484375,0.0,-466.1067469637947,-374.73415301329055,940.0868612511457,False
4.96875,-78.4622142053973,-724.0945347638681,-570.3998196214393,501.6017381934033,False
4.97265625,-194.0276922452643,-967.3864526046441,-719.6302489115491,-302.8688201764436,False
4.9765625,-195.18932565387436,-989.4187030218773,-713.0790865237717,-367.895871845209,False
4.98046875,-100.58211837381607,-992.0486389589062,-732.4939311697983,404.81940903796215,False
4.984375,-73.84226770164986,-1000.0,-822.2545853383746,919.7007237244119,False
4.98828125,-158.06885884509626,-1000.0,-898.1421144592117,537.7619085128322,False
4.9921875,-268.70787026428354,-999.4385287771158,-911.4266166838528,-298.89143895126796,False
4.99609375,-297.30966429880846,-999.58604252597,-906.1916688149252,-493.6938469103269,False
5.0,-203.82694345783685,-999.7181305854721,-914.5551672777268,232.53519563473878,False
5.00390625,-133.3869801214482,-985.1074666303849,-867.9535928429575,858.8717704514207,False
5.0078125,-179.46417062901008,-981.6844554403452,-826.6820863886343,545.1918991559731,False
5.01171875,-264.76721829170486,-994.4727994672319,-853.1429021539872,-314.77124627635203,False
5.015625,-281.63560829167164,-999.1647882270836,-848.1318725395911,-582.8459096403126,False
5.01953125,-186.09900726588756,-915.5911947658876,-783.0215673216468,87.96238280056525,False
5.0234375,-79.19880103307364,-745.9417905495723,-717.5600736613962,-318.5454082168501,False
5.02734375,-90.51194789757103,-758.0411105064161,-738.7369493297433,-181.84739487855177,False
5.03125,-176.7417900721815,-923.2079347120379,-790.3592425240605,-116.72842909792234,False
5.03515625,-213.7507936621601,-997.67498758784,-780.1730362530553,-517.4777237530553,False
5.0390625,-147.04963551214482,-925.6344523373052,-674.5222810208525,79.04114273029325,False
5.04296875,-42.81252386953865,-786.2816390734799,-602.0711001947755,-330.33284281431406,False
5.046875,-28.004081463120265,-856.2626993705695,-696.0141282884686,-82.21028247983384,False
5.05078125,-105.85791299075771,-981.1839410517873,-745.448705554919,9.429512058890964,False
5.0546875,-141.37169884280476,-949.0798889589062,-671.0946152707761,-506.15496939925146,False
5.05859375,-65.37490690879926,-858.7077867208983,-586.5013283398258,-4.652501288955136,False
5.0625,18.879386311026934,-672.5003534695918,-488.35029987373736,-378.81438900726016,False
5.06640625,15.832008573938282,-504.32026714787656,-429.29454771998167,-23.88732145585095,False
5.0703125,-54.097803047662694,-648.6836546173236,-493.83879468377637,195.6150464023831,False
5.07421875,-95.36731042812404,-906.0936545218455,-588.5911959593645,-387.3845609437061,False
5.078125,-23.836270480064172,-801.1877482432019,-503.274781355026,-17.821803152688688,False
5.08203125,96.84564046746104,-624.9146962362512,-382.13499298235564,721.0166812270852,False
5.0859375,112.89856162160098,-791.7741094275129,-430.5900967671097,921.5251024003207,False
5.08984375,2.600347540482744,-972.5225805835624,-597.9254685590437,370.8073453731286,False
5.09375,-82.2013204628781,-958.6549753666361,-592.9233680396426,-304.78640940077906,False
5.09765625,-24.596843492208976,-725.1035341238925,-375.65715823594564,-104.23257643026278,False
5.1015625,106.89316471891232,-444.1017176520012,-254.8250780533914,642.5956989478307,False
5.10546875,157.57117896425297,-535.8263276237396,-284.54990404445465,917.244607871219,False
5.109375,77.08916636560693,-833.0557938945087,-378.5082866690751,378.5082866690751,False
5.11328125,-11.54059373090437,-838.6518544244577,-384.30043752864344,-353.11100648296673,False
5.1171875,9.23151423579285,-670.0610642472502,-334.46281006530705,-235.63951864688357,False
5.12109375,97.35444952069966,-569.6759292411397,-297.13294020203176,544.4329970115338,False
5.125,136.19896095898258,-457.731104873205,-251.63804708982585,934.0890727639016,False
5.12890625,70.39959397914757,-609.8433203483044,-333.74520222273145,487.39357169454627,False
5.1328125,-19.837406670103874,-902.7303171784296,-484.3957068247785,-272.57291547318977,False
5.13671875,-20.857948795065692,-966.8237282309808,-516.539203330278,-274.12735950389555,False
5.140625,71.9774003208066,-655.2282345611825,-343.118053964253,474.57580846127405,False
5.14453125,141.9337668041552,-330.4122687041705,-219.61252577910173,931.6483527631378,False
5.1484375,85.24274724068133,-527.1250155152002,-340.1621398086618,528.4490289871677,False
5.15234375,-25.819829141842348,-845.2449193686984,-449.6912773544913,-289.6989215742438,False
5.15625,-47.77899884887261,-792.0064058543588,-398.87246978055106,-398.13723661602455,False
5.16015625,35.363944823174464,-583.0616084727315,-311.23843520852427,353.00774089138406,False
5.1640625,100.8192025664528,-634.6568694145279,-350.369679479835,-203.712190650779,False
5.16796875,49.31816662847541,-885.9908185819585,-468.10653691185456,-239.70673884815153,False
5.171875,-49.06383669416438,-980.4787453693095,-487.67048817980447,-156.5592597101283,False
5.17578125,-77.14557315536206,-965.0565171001375,-454.6497264550871,-406.65199286778187,False
5.1796875,11.21584865757714,-984.7215857011915,-507.7912561106019,263.6561807783379,False
5.18359375,104.01512493316528,-885.1910995264284,-451.22116559731137,-248.17045953635807,False
5.1875,54.19053620531622,-653.7659866235106,-314.9640524747938,-186.81828597616868,False
5.19140625,-73.34303630079438,-670.5465109895356,-358.43006463871063,-131.65273879086465,False
5.1953125,-123.8228737014971,-866.875495292927,-421.25457101665137,-492.30929432095934,False
5.19921875,-46.90221127406049,-820.7060788554079,-354.51581834326305,124.09039155591199,False
5.203125,59.592950592363415,-503.6997068838666,-257.83342844476306,-311.91111483172347,False
5.20703125,64.64664728460127,-442.66593506530705,-307.58711188130155,-142.8742266269478,False
5.2109375,-26.45654908531928,-764.2742824816683,-431.51665258363886,-53.783292039031494,False
5.21484375,-79.96254382179518,-897.0284478873884,-447.57775981837347,-561.076090007485,False
5.21875,-20.199388223724412,-785.5364619137641,-407.5183377730675,-58.19077251374881,False
5.22265625,63.20095883936755,-781.7809778872594,-407.15871333638864,-404.8953440077911,False
5.2265625,61.2589331748396,-903.6702996104491,-488.2979586770547,-86.95881788496797,False
5.23046875,-4.220253780934925,-941.4044001107546,-509.8075757141766,25.05782395737856,False
5.234375,-58.79497021081576,-877.2562084670028,-463.6659672891842,-569.6323971700275,False
5.23828125,-46.222227791781236,-843.3306122059273,-436.67930558738163,-160.68528848724407,False
5.2421875,27.787783092728382,-721.2012822716163,-369.25108129010084,656.6663145909715,False
5.24609375,50.95042535517874,-553.0306556484876,-329.18256974679196,813.2814290215399,False
5.25,17.11291721497787,-688.1525993689437,-424.98214873190574,110.04921248803691,False
5.25390625,0.0,-920.0686726626948,-540.8625615834097,-582.3400621562787,False
5.2578125,0.0,-923.7526674209441,-515.2217539814391,-326.6873376871372,False
5.26171875,0.0,-835.8027266173999,-415.0033477027956,524.6483420218453,False
5.265625,0.0,-726.777325847846,-377.0156930281851,837.9939204285059,False
5.26953125,0.0,-783.729567674916,-509.9652041800336,201.7021964749465,False
5.2734375,0.0,-946.434069947296,-623.1149031851512,-572.6975144649405,False
5.27734375,0.0,-930.74784458066,-508.77850022914754,-417.56120746448215,False
5.28125,0.0,-685.284131053315,-365.63362287083714,453.1197487014971,False
5.28515625,0.0,-692.5268651657501,-477.3113172643599,878.6896339367553,False
5.2890625,0.0,-915.5965355751604,-593.5997114172777,307.01182616292397,False
5.29296875,0.0,-942.2542153605256,-532.9681592289185,-540.5157073499083,False
5.296875,-9.48935252613371,-880.6538013688372,-491.26233090779067,-536.4633156955761,False
5.30078125,35.04122866063245,-813.2888882523679,-439.9989915119921,298.38698608883294,False
5.3046875,62.05065593492209,-633.73329729033,-359.4831290100825,861.954431857241,False
5.30859375,-18.290033990223037,-614.7903717441949,-407.0324434769325,406.2883404464559,False
5.3125,-116.8265925756187,-851.6542187022609,-538.6504819259853,-454.70787861862203,False
5.31640625,-110.8243583868011,-991.6903571837763,-589.0138956519248,-552.1830781679652,False
5.3203125,4.979239543871444,-921.1142049447025,-503.4776389504155,233.835312872342,False
5.32421875,92.67518451153376,-708.8018625401008,-407.88628671135046,852.3927123911549,False
